!CSV A.01.01
!Keysight Technologies,N5227B,US58420762,A.13.80.08
!Date: Tuesday, November 21, 2023 09:33:30
!Source: Standard

BEGIN CH1_DATA
Freq(Hz),S21(DB),S21(DEG)
3000000000,-53.747005,171.51903
3003000000,-53.866047,163.18411
3006000000,-53.93853,155.80223
3009000000,-53.903831,148.5513
3012000000,-53.914688,141.77635
3015000000,-53.923759,133.52454
3018000000,-53.838314,126.64391
3021000000,-53.549644,117.84926
3024000000,-53.372829,109.46911
3027000000,-53.238045,100.07786
3030000000,-53.070084,90.757019
3033000000,-53.142414,81.325081
3036000000,-53.242012,72.936142
3039000000,-53.226456,63.259266
3042000000,-53.360611,54.843945
3045000000,-53.468712,45.67416
3048000000,-53.852421,37.865334
3051000000,-53.829197,31.318768
3054000000,-53.784622,25.346849
3057000000,-53.589432,17.253658
3060000000,-53.26889,8.6190634
3063000000,-53.124062,-0.80351114
3066000000,-53.005188,-9.6239977
3069000000,-53.130524,-19.652637
3072000000,-53.144142,-29.308783
3075000000,-53.299793,-38.34697
3078000000,-53.468559,-47.201561
3081000000,-53.639927,-56.424789
3084000000,-53.950218,-63.413074
3087000000,-54.186863,-71.291046
3090000000,-54.211861,-77.142807
3093000000,-54.163197,-83.676041
3096000000,-54.049866,-90.685722
3099000000,-53.661869,-98.444237
3102000000,-53.493622,-107.22038
3105000000,-53.465034,-116.35025
3108000000,-53.307861,-125.99
3111000000,-53.366318,-135.57037
3114000000,-53.493225,-145.13788
3117000000,-53.88623,-154.49742
3120000000,-54.135891,-160.96057
3123000000,-54.14798,-167.69719
3126000000,-54.177959,-174.28554
3129000000,-54.007008,178.53842
3132000000,-53.82959,171.79427
3135000000,-53.500111,162.96553
3138000000,-53.390987,153.58672
3141000000,-53.209183,144.95596
3144000000,-53.062584,135.09427
3147000000,-53.12109,124.86198
3150000000,-53.34623,114.98643
3153000000,-53.557648,105.78472
3156000000,-53.885162,98.47934
3159000000,-53.899597,90.856735
3162000000,-54.254864,84.571976
3165000000,-53.993526,77.992241
3168000000,-53.82473,70.309631
3171000000,-53.472561,61.351341
3174000000,-53.4231,52.961281
3177000000,-53.31242,42.659695
3180000000,-53.350712,33.337624
3183000000,-53.443905,23.400396
3186000000,-53.455009,14.533922
3189000000,-53.839096,5.2412734
3192000000,-54.199467,-3.9129019
3195000000,-54.546432,-11.344625
3198000000,-54.876354,-16.466114
3201000000,-54.757381,-22.03108
3204000000,-54.385601,-28.946089
3207000000,-54.193638,-37.300415
3210000000,-54.18679,-46.097961
3213000000,-54.204365,-56.453171
3216000000,-54.408188,-64.07412
3219000000,-54.516479,-71.506889
3222000000,-54.615238,-78.896095
3225000000,-54.519672,-86.709396
3228000000,-54.343056,-95.517586
3231000000,-54.516605,-102.68258
3234000000,-54.495037,-109.72774
3237000000,-54.592594,-117.14005
3240000000,-54.468712,-124.92505
3243000000,-54.300644,-133.14478
3246000000,-54.180126,-140.79599
3249000000,-54.135437,-149.36331
3252000000,-54.194931,-157.23134
3255000000,-54.111019,-165.92998
3258000000,-54.059704,-174.22551
3261000000,-53.884995,177.98987
3264000000,-53.805939,169.12093
3267000000,-53.816082,160.16724
3270000000,-53.920464,152.6555
3273000000,-53.918739,144.13812
3276000000,-53.930614,135.95467
3279000000,-53.899876,127.19434
3282000000,-53.877487,119.30893
3285000000,-53.757195,110.57947
3288000000,-53.690777,102.19113
3291000000,-53.660946,94.146461
3294000000,-53.566803,84.994324
3297000000,-53.535004,76.576233
3300000000,-53.768829,67.105873
3303000000,-53.845165,58.807259
3306000000,-53.803535,51.262707
3309000000,-53.832932,42.56554
3312000000,-53.928307,33.92345
3315000000,-53.930157,25.093723
3318000000,-54.132366,17.051794
3321000000,-54.211086,9.458683
3324000000,-54.232777,1.9901694
3327000000,-54.346642,-5.4749656
3330000000,-54.200356,-12.664482
3333000000,-53.905441,-20.707594
3336000000,-53.84322,-29.654331
3339000000,-53.832478,-38.872574
3342000000,-54.006298,-47.488403
3345000000,-54.098652,-56.455952
3348000000,-54.151253,-64.708549
3351000000,-54.499363,-71.673729
3354000000,-54.510098,-79.048225
3357000000,-54.506321,-86.0308
3360000000,-54.363678,-93.395515
3363000000,-54.173779,-100.83556
3366000000,-53.926132,-109.14855
3369000000,-53.574791,-118.09399
3372000000,-53.546612,-127.82926
3375000000,-53.617065,-136.59402
3378000000,-53.667118,-145.19919
3381000000,-53.851704,-154.18852
3384000000,-53.907509,-163.1161
3387000000,-53.918694,-170.75819
3390000000,-54.008179,-178.58838
3393000000,-54.030132,172.46774
3396000000,-54.122116,164.44911
3399000000,-54.192829,155.98212
3402000000,-54.205711,148.01242
3405000000,-54.138367,140.88814
3408000000,-54.025356,132.03302
3411000000,-54.074406,122.91815
3414000000,-54.102489,114.74009
3417000000,-54.162003,105.48109
3420000000,-54.418449,96.972305
3423000000,-54.617699,89.925545
3426000000,-54.66647,82.173973
3429000000,-54.534237,75.523277
3432000000,-54.570553,68.930565
3435000000,-54.435406,60.453793
3438000000,-54.397449,52.662128
3441000000,-54.246269,43.949783
3444000000,-54.278561,35.342476
3447000000,-54.362034,27.362242
3450000000,-54.229839,19.171886
3453000000,-54.160534,9.5968647
3456000000,-54.377487,1.735808
3459000000,-54.328964,-6.2168283
3462000000,-54.471256,-14.45194
3465000000,-54.451916,-21.138514
3468000000,-54.361198,-27.6863
3471000000,-54.181675,-36.314377
3474000000,-53.870918,-45.915554
3477000000,-53.992458,-55.948074
3480000000,-54.01709,-65.317108
3483000000,-54.090347,-73.441284
3486000000,-54.339764,-81.343231
3489000000,-54.408646,-89.091507
3492000000,-54.215122,-96.749512
3495000000,-54.370667,-105.10117
3498000000,-54.325851,-112.97964
3501000000,-54.326466,-122.45785
3504000000,-54.358849,-130.24597
3507000000,-54.279591,-138.73772
3510000000,-54.386574,-147.36496
3513000000,-54.252411,-156.27913
3516000000,-54.285629,-164.89941
3519000000,-54.51379,-174.4269
3522000000,-54.652981,176.81454
3525000000,-54.758942,169.64995
3528000000,-54.878475,162.15926
3531000000,-55.09547,155.17831
3534000000,-55.127014,147.74487
3537000000,-55.152905,140.05583
3540000000,-54.811954,132.38045
3543000000,-54.922127,123.67542
3546000000,-54.729206,114.03874
3549000000,-54.980198,105.46957
3552000000,-55.109631,96.329811
3555000000,-55.217995,88.230469
3558000000,-55.683006,81.390198
3561000000,-55.739208,74.15139
3564000000,-55.917488,68.217949
3567000000,-55.848091,61.564888
3570000000,-55.620575,54.633732
3573000000,-55.283844,48.600632
3576000000,-55.066166,38.642246
3579000000,-54.766106,29.511957
3582000000,-54.721336,20.199894
3585000000,-54.835243,9.5136871
3588000000,-54.999458,0.75897235
3591000000,-55.240185,-7.5211439
3594000000,-55.558182,-15.369107
3597000000,-55.824947,-22.156713
3600000000,-55.868656,-27.083935
3603000000,-55.640095,-33.571854
3606000000,-55.361252,-41.101761
3609000000,-55.100327,-50.387627
3612000000,-55.107334,-58.604424
3615000000,-54.979614,-67.524544
3618000000,-54.913273,-76.687927
3621000000,-55.099682,-85.995842
3624000000,-55.150211,-95.662682
3627000000,-55.385979,-103.00221
3630000000,-55.579964,-111.26664
3633000000,-55.603394,-119.21664
3636000000,-55.984364,-125.87268
3639000000,-55.931644,-133.0544
3642000000,-55.748878,-139.85483
3645000000,-55.571438,-146.81931
3648000000,-55.532764,-155.74269
3651000000,-55.435997,-164.22354
3654000000,-55.310368,-171.90535
3657000000,-55.346481,178.58978
3660000000,-55.297684,169.91777
3663000000,-55.34095,162.0903
3666000000,-55.591564,154.38942
3669000000,-55.718872,146.29251
3672000000,-55.671726,137.1526
3675000000,-55.744431,130.36577
3678000000,-55.760418,124.49339
3681000000,-55.571014,116.25154
3684000000,-55.528202,108.50977
3687000000,-55.13546,99.627419
3690000000,-55.268173,91.760933
3693000000,-54.972809,82.824776
3696000000,-55.213955,73.060211
3699000000,-55.231434,63.821281
3702000000,-55.391048,54.841537
3705000000,-55.585438,46.616287
3708000000,-55.748077,40.78384
3711000000,-55.775597,31.55529
3714000000,-55.813652,24.341503
3717000000,-55.69965,17.60841
3720000000,-55.676891,11.337819
3723000000,-55.565483,2.0939395
3726000000,-55.254047,-5.6058054
3729000000,-55.220219,-14.649404
3732000000,-55.169014,-23.351954
3735000000,-55.246181,-33.408916
3738000000,-55.465248,-40.711555
3741000000,-55.390453,-48.711666
3744000000,-55.634106,-57.46344
3747000000,-55.771839,-66.095901
3750000000,-55.996178,-73.634407
3753000000,-56.027447,-80.313301
3756000000,-55.975903,-87.858284
3759000000,-55.781918,-94.334953
3762000000,-55.782455,-101.96493
3765000000,-55.691212,-111.30888
3768000000,-55.551346,-119.68628
3771000000,-55.460384,-128.43118
3774000000,-55.636971,-136.45296
3777000000,-55.712173,-144.62967
3780000000,-55.758263,-153.94281
3783000000,-56.000244,-161.93309
3786000000,-56.132652,-170.18025
3789000000,-56.364822,-176.603
3792000000,-56.491074,177.03444
3795000000,-56.237053,171.05121
3798000000,-56.086491,163.11244
3801000000,-55.916687,155.83308
3804000000,-55.810158,147.40987
3807000000,-55.571518,138.94849
3810000000,-55.628139,129.18472
3813000000,-55.373978,122.53758
3816000000,-55.581291,112.05932
3819000000,-55.744652,102.09648
3822000000,-55.900063,94.517136
3825000000,-56.134132,87.273033
3828000000,-56.15984,82.092041
3831000000,-56.099945,75.07914
3834000000,-55.695473,67.516739
3837000000,-55.640926,60.253551
3840000000,-55.458817,51.980244
3843000000,-55.32151,43.023773
3846000000,-55.308983,33.018776
3849000000,-55.276588,23.616642
3852000000,-55.309216,15.630589
3855000000,-55.391495,7.4738212
3858000000,-55.52256,-1.3477134
3861000000,-55.699219,-9.6613359
3864000000,-55.773846,-15.919245
3867000000,-55.714672,-22.541754
3870000000,-55.71809,-31.132795
3873000000,-55.764286,-38.020378
3876000000,-55.603844,-46.158871
3879000000,-55.619591,-53.38488
3882000000,-55.331566,-61.516338
3885000000,-55.320747,-72.073044
3888000000,-55.218678,-79.997604
3891000000,-55.286999,-88.333778
3894000000,-55.477913,-96.984619
3897000000,-55.44022,-105.44372
3900000000,-55.618149,-113.60529
3903000000,-55.798988,-121.52606
3906000000,-55.952045,-129.05489
3909000000,-55.885468,-134.96786
3912000000,-55.684216,-141.62712
3915000000,-55.52042,-149.42113
3918000000,-55.318401,-158.96115
3921000000,-55.307682,-167.13998
3924000000,-55.32222,-175.03065
3927000000,-55.366177,175.61363
3930000000,-55.36121,168.17136
3933000000,-55.446468,160.17807
3936000000,-55.427006,152.31465
3939000000,-55.638405,143.26524
3942000000,-55.545216,136.85709
3945000000,-55.563965,128.87405
3948000000,-55.707615,121.15036
3951000000,-55.604374,114.85148
3954000000,-55.313023,107.51078
3957000000,-55.033993,98.939919
3960000000,-54.814152,91.276405
3963000000,-54.696228,81.146706
3966000000,-54.699581,71.430786
3969000000,-54.768021,62.69046
3972000000,-54.980133,53.364609
3975000000,-55.296696,45.755535
3978000000,-55.171738,38.018173
3981000000,-55.520981,30.555115
3984000000,-55.271954,24.828754
3987000000,-55.259254,17.240841
3990000000,-55.052475,9.8312273
3993000000,-54.925625,1.5933446
3996000000,-54.677185,-6.7638636
3999000000,-54.597176,-16.532488
4002000000,-54.732155,-26.390461
4005000000,-54.839592,-34.366947
4008000000,-55.041195,-42.51823
4011000000,-55.142296,-50.233643
4014000000,-55.123096,-57.784782
4017000000,-55.018776,-64.528633
4020000000,-55.054054,-73.37114
4023000000,-55.046268,-80.146828
4026000000,-54.87368,-87.113937
4029000000,-54.886795,-95.527199
4032000000,-54.586075,-103.39973
4035000000,-54.528664,-111.84623
4038000000,-54.508785,-121.01415
4041000000,-54.396019,-130.36699
4044000000,-54.596203,-138.67842
4047000000,-54.494091,-146.25816
4050000000,-54.600533,-153.65381
4053000000,-54.58342,-162.47096
4056000000,-54.623363,-170.80933
4059000000,-54.573315,-178.362
4062000000,-54.527245,173.96655
4065000000,-54.630463,166.26263
4068000000,-54.435673,158.02472
4071000000,-54.446808,150.87938
4074000000,-54.292702,142.67235
4077000000,-54.185085,134.4496
4080000000,-53.999275,125.56803
4083000000,-54.011368,115.77802
4086000000,-54.214725,107.48363
4089000000,-54.094578,99.390198
4092000000,-54.117237,91.362083
4095000000,-54.252907,83.161949
4098000000,-54.066723,75.26561
4101000000,-54.10511,66.974304
4104000000,-54.106693,58.223564
4107000000,-53.976131,51.103706
4110000000,-54.108524,42.739365
4113000000,-53.848694,35.371357
4116000000,-53.90918,25.731861
4119000000,-53.816898,17.480967
4122000000,-53.87249,9.3851738
4125000000,-53.726845,0.17140593
4128000000,-54.001656,-9.2906723
4131000000,-54.193512,-17.357351
4134000000,-54.017223,-24.685101
4137000000,-54.331974,-32.273975
4140000000,-54.253113,-39.713009
4143000000,-54.103336,-46.763435
4146000000,-54.064987,-54.728157
4149000000,-53.901283,-62.15456
4152000000,-53.864231,-70.291611
4155000000,-53.802986,-79.144432
4158000000,-53.834076,-87.636566
4161000000,-53.75069,-96.440514
4164000000,-53.805733,-103.94408
4167000000,-53.726688,-113.47582
4170000000,-53.865204,-121.626
4173000000,-53.762558,-128.63271
4176000000,-53.995686,-136.3949
4179000000,-53.661442,-143.20425
4182000000,-53.485462,-151.60841
4185000000,-53.502872,-160.83247
4188000000,-53.37896,-169.80507
4191000000,-53.425171,-177.81873
4194000000,-53.318794,172.59598
4197000000,-53.382027,163.67766
4200000000,-53.482895,155.20001
4203000000,-53.451237,147.63652
4206000000,-53.447174,139.97276
4209000000,-53.34446,130.95854
4212000000,-53.405308,122.84601
4215000000,-53.491028,114.41031
4218000000,-53.376194,106.36693
4221000000,-53.606064,97.128296
4224000000,-53.442383,88.333633
4227000000,-53.502731,81.180214
4230000000,-53.44944,72.994331
4233000000,-53.459137,65.33638
4236000000,-53.571892,57.806099
4239000000,-53.609463,48.104683
4242000000,-53.530785,40.21384
4245000000,-53.499752,32.139488
4248000000,-53.510349,22.842405
4251000000,-53.552971,15.174253
4254000000,-53.832214,6.2957997
4257000000,-53.834866,-2.8313291
4260000000,-54.003094,-10.488261
4263000000,-54.013344,-15.497102
4266000000,-53.864548,-23.768467
4269000000,-53.843079,-31.301132
4272000000,-53.768108,-39.66209
4275000000,-53.651783,-48.245918
4278000000,-53.802372,-56.058155
4281000000,-53.693729,-63.10463
4284000000,-53.478615,-71.396873
4287000000,-53.418888,-79.243652
4290000000,-53.496689,-88.874817
4293000000,-53.595795,-97.739265
4296000000,-53.716465,-105.58215
4299000000,-53.714153,-113.73022
4302000000,-53.679699,-119.78511
4305000000,-53.526218,-127.44293
4308000000,-53.473927,-134.6799
4311000000,-53.208126,-143.21545
4314000000,-53.166367,-152.26282
4317000000,-53.026974,-162.53995
4320000000,-53.039925,-170.3129
4323000000,-53.090797,-179.50574
4326000000,-53.254753,172.46609
4329000000,-53.060539,164.2536
4332000000,-53.296741,155.76437
4335000000,-53.326008,147.82707
4338000000,-53.240829,140.08482
4341000000,-53.51186,132.36668
4344000000,-53.395092,125.48689
4347000000,-53.266422,117.62016
4350000000,-53.218876,108.81615
4353000000,-53.092136,100.48872
4356000000,-53.06044,91.688698
4359000000,-53.016075,82.25515
4362000000,-52.914124,73.544334
4365000000,-53.150459,65.826294
4368000000,-53.155369,57.5233
4371000000,-53.187855,49.989941
4374000000,-53.219402,42.056259
4377000000,-53.049671,35.118134
4380000000,-53.218887,25.963205
4383000000,-53.155003,17.755688
4386000000,-53.091671,11.371016
4389000000,-53.150951,3.5254257
4392000000,-52.759045,-4.5935411
4395000000,-52.735199,-13.574037
4398000000,-52.607307,-21.94055
4401000000,-52.523781,-30.969847
4404000000,-52.656952,-41.321369
4407000000,-52.739033,-49.274609
4410000000,-53.022427,-58.329788
4413000000,-52.978333,-64.807518
4416000000,-53.059315,-71.898155
4419000000,-52.939575,-79.135239
4422000000,-52.629375,-87.49218
4425000000,-52.498379,-95.338104
4428000000,-52.437515,-104.45693
4431000000,-52.378338,-113.33163
4434000000,-52.229652,-122.84138
4437000000,-52.072693,-132.05212
4440000000,-52.103943,-141.62317
4443000000,-52.315987,-150.44348
4446000000,-52.661846,-159.9677
4449000000,-52.847401,-167.57764
4452000000,-52.912643,-175.67915
4455000000,-53.005226,178.45032
4458000000,-52.865402,171.70128
4461000000,-52.702145,163.73448
4464000000,-52.484398,155.06723
4467000000,-52.364048,146.60678
4470000000,-52.303135,137.27109
4473000000,-52.338314,128.21745
4476000000,-52.431866,119.42026
4479000000,-52.48698,110.59624
4482000000,-52.699986,103.03412
4485000000,-52.904011,93.8442
4488000000,-52.933979,87.6912
4491000000,-52.990952,79.19841
4494000000,-52.995747,72.381706
4497000000,-52.686031,65.821533
4500000000,-52.605022,58.137562
4503000000,-52.387436,49.068451
4506000000,-52.342693,40.259525
4509000000,-52.307896,31.542887
4512000000,-52.123314,22.041723
4515000000,-52.11763,13.984719
4518000000,-52.420677,4.3674331
4521000000,-52.466309,-3.6261082
4524000000,-52.448498,-11.063617
4527000000,-52.510017,-18.499731
4530000000,-52.4776,-26.953003
4533000000,-52.364563,-34.497299
4536000000,-52.197102,-42.556538
4539000000,-52.206688,-51.296898
4542000000,-52.257854,-59.1161
4545000000,-52.088749,-68.344086
4548000000,-52.025276,-77.339302
4551000000,-51.93504,-86.057892
4554000000,-51.877407,-94.588341
4557000000,-52.226746,-104.61097
4560000000,-52.247734,-111.40047
4563000000,-52.497559,-120.79209
4566000000,-52.465729,-128.00682
4569000000,-52.371372,-135.51309
4572000000,-52.531216,-143.4767
4575000000,-52.278595,-151.39819
4578000000,-52.231384,-159.58752
4581000000,-52.201611,-168.30974
4584000000,-52.256413,-177.15685
4587000000,-52.202923,174.1443
4590000000,-52.151226,165.78461
4593000000,-52.164165,156.36221
4596000000,-52.274372,148.38623
4599000000,-52.417377,140.03531
4602000000,-52.308403,132.14679
4605000000,-52.625793,123.99797
4608000000,-52.671257,116.10316
4611000000,-52.510433,109.15952
4614000000,-52.516506,101.69229
4617000000,-52.440166,93.478279
4620000000,-52.310989,84.816666
4623000000,-52.234154,76.732872
4626000000,-52.057701,67.424484
4629000000,-52.097519,58.675743
4632000000,-52.17804,50.066284
4635000000,-52.282959,41.637447
4638000000,-52.162964,33.329708
4641000000,-52.512711,24.642973
4644000000,-52.456802,15.660626
4647000000,-52.448601,8.256031
4650000000,-52.530216,1.803876
4653000000,-52.456333,-6.5423164
4656000000,-52.286312,-14.009587
4659000000,-52.315639,-22.03619
4662000000,-52.102837,-30.428303
4665000000,-52.082359,-39.117123
4668000000,-51.961136,-48.3965
4671000000,-51.960346,-57.197601
4674000000,-52.141502,-66.326057
4677000000,-52.107517,-75.063629
4680000000,-52.276768,-83.685593
4683000000,-52.421455,-91.739021
4686000000,-52.57415,-100.02409
4689000000,-52.463585,-106.40272
4692000000,-52.481804,-113.60944
4695000000,-52.244938,-121.21795
4698000000,-52.361015,-130.18936
4701000000,-52.058681,-139.2126
4704000000,-51.96088,-147.2066
4707000000,-52.01273,-156.414
4710000000,-52.068123,-166.22728
4713000000,-52.264057,-174.54741
4716000000,-52.469112,177.53058
4719000000,-52.647289,168.73836
4722000000,-52.38752,160.52026
4725000000,-52.56749,153.13223
4728000000,-52.492687,145.9024
4731000000,-52.651272,137.58562
4734000000,-52.484024,130.79701
4737000000,-52.233231,122.65669
4740000000,-52.124954,113.2989
4743000000,-52.099201,103.89069
4746000000,-52.107349,94.576591
4749000000,-52.243683,85.595047
4752000000,-52.282623,76.985825
4755000000,-52.51598,69.229874
4758000000,-52.672825,61.300293
4761000000,-52.647285,53.670143
4764000000,-52.80204,46.397781
4767000000,-52.881027,38.733524
4770000000,-52.536835,30.663776
4773000000,-52.499146,22.953833
4776000000,-52.371033,15.56597
4779000000,-52.281414,5.4145832
4782000000,-52.368805,-3.4232903
4785000000,-52.397999,-12.390654
4788000000,-52.462284,-21.267883
4791000000,-52.646999,-29.927639
4794000000,-52.849842,-37.579193
4797000000,-52.904709,-44.250458
4800000000,-52.986019,-51.220604
4803000000,-52.869846,-58.78339
4806000000,-52.728718,-66.36058
4809000000,-52.594009,-74.528381
4812000000,-52.611347,-83.97226
4815000000,-52.441441,-93.096504
4818000000,-52.530159,-101.56284
4821000000,-52.524071,-109.30013
4824000000,-52.528259,-117.60519
4827000000,-52.712151,-126.18425
4830000000,-52.828693,-135.35435
4833000000,-52.799141,-142.5715
4836000000,-52.63335,-148.92168
4839000000,-52.729469,-157.15762
4842000000,-52.564594,-164.38911
4845000000,-52.308422,-173.05231
4848000000,-52.285011,176.30524
4851000000,-52.26823,169.17332
4854000000,-52.243347,159.95435
4857000000,-52.52927,151.51743
4860000000,-52.570595,143.3799
4863000000,-52.689777,134.7128
4866000000,-52.41148,126.60112
4869000000,-52.454456,118.67932
4872000000,-52.49868,109.75519
4875000000,-52.499893,101.95734
4878000000,-52.56744,92.502823
4881000000,-52.580074,84.931587
4884000000,-52.600193,76.637833
4887000000,-52.497551,67.927368
4890000000,-52.550762,60.248409
4893000000,-52.394791,51.6394
4896000000,-52.427853,43.233791
4899000000,-52.553997,34.458622
4902000000,-52.429691,26.482756
4905000000,-52.390354,17.412117
4908000000,-52.593426,9.4354792
4911000000,-52.630539,0.81412423
4914000000,-52.617397,-7.8630276
4917000000,-52.629974,-14.992636
4920000000,-52.721272,-24.545454
4923000000,-52.687965,-32.154655
4926000000,-52.787735,-41.281368
4929000000,-52.856541,-48.380318
4932000000,-52.93412,-56.419426
4935000000,-52.865421,-65.43998
4938000000,-52.898087,-73.23468
4941000000,-52.883938,-81.932358
4944000000,-52.924068,-89.656334
4947000000,-53.052879,-98.247513
4950000000,-52.9118,-105.59689
4953000000,-52.958687,-114.95238
4956000000,-52.921738,-123.35737
4959000000,-53.114548,-131.91992
4962000000,-53.218658,-139.21516
4965000000,-53.238586,-148.25346
4968000000,-53.374874,-154.52098
4971000000,-53.252148,-161.41241
4974000000,-53.062092,-169.49419
4977000000,-52.853447,-178.59801
4980000000,-52.953762,173.47568
4983000000,-52.915699,164.19653
4986000000,-53.118629,154.52867
4989000000,-53.109531,146.67442
4992000000,-53.107578,138.97946
4995000000,-53.073124,131.82631
4998000000,-52.76289,124.55996
5001000000,-53.027885,114.59133
5004000000,-52.992523,105.49352
5007000000,-53.109131,98.141953
5010000000,-53.224216,90.631813
5013000000,-53.239952,81.586594
5016000000,-53.149899,74.005089
5019000000,-53.190304,66.091621
5022000000,-52.996613,57.794834
5025000000,-52.844555,49.828529
5028000000,-52.815933,40.850193
5031000000,-53.072552,32.125488
5034000000,-53.223087,24.002234
5037000000,-53.110119,16.162325
5040000000,-53.224388,7.570271
5043000000,-53.50211,-1.067605
5046000000,-53.397987,-7.4622593
5049000000,-53.333431,-14.243848
5052000000,-53.227707,-22.663742
5055000000,-53.084969,-31.468243
5058000000,-52.941334,-40.813778
5061000000,-52.931862,-50.117401
5064000000,-53.112362,-58.500782
5067000000,-53.017902,-66.83609
5070000000,-53.019516,-76.113945
5073000000,-53.214096,-84.025803
5076000000,-53.37022,-92.207596
5079000000,-53.50568,-100.47839
5082000000,-53.546516,-107.30776
5085000000,-53.417477,-114.64919
5088000000,-53.360592,-122.93281
5091000000,-53.269585,-131.74355
5094000000,-53.214256,-139.07561
5097000000,-53.121277,-148.34015
5100000000,-53.191433,-156.62399
5103000000,-53.154346,-166.07872
5106000000,-53.263359,-175.59923
5109000000,-53.121059,175.40158
5112000000,-53.420994,166.73811
5115000000,-53.532124,157.85201
5118000000,-53.698318,151.86665
5121000000,-53.91153,143.4175
5124000000,-53.723999,136.97345
5127000000,-53.842751,129.15384
5130000000,-53.521515,121.50008
5133000000,-53.539654,112.14731
5136000000,-53.386932,103.61197
5139000000,-53.217808,94.002716
5142000000,-53.476318,84.093262
5145000000,-53.58601,74.442558
5148000000,-53.82209,65.850029
5151000000,-53.951092,59.560139
5154000000,-54.439114,51.276276
5157000000,-54.378574,45.416401
5160000000,-54.489834,40.159779
5163000000,-53.918427,31.400473
5166000000,-53.950459,23.536798
5169000000,-53.638557,14.904397
5172000000,-53.703754,5.2231688
5175000000,-53.973667,-3.5101285
5178000000,-53.938061,-11.300644
5181000000,-54.159836,-19.580391
5184000000,-54.096508,-28.607342
5187000000,-54.382984,-36.415501
5190000000,-54.291668,-44.541599
5193000000,-54.605297,-52.396748
5196000000,-54.582706,-58.767841
5199000000,-54.369888,-65.195534
5202000000,-54.234886,-72.822433
5205000000,-54.069977,-81.632195
5208000000,-54.111816,-90.799072
5211000000,-54.093174,-99.222382
5214000000,-53.899857,-108.74611
5217000000,-53.915104,-117.1962
5220000000,-53.823257,-126.79927
5223000000,-54.007206,-135.97279
5226000000,-54.425629,-142.99716
5229000000,-54.727356,-151.10522
5232000000,-54.424114,-156.81815
5235000000,-54.404606,-163.98984
5238000000,-54.388855,-171.86299
5241000000,-54.217159,179.25668
5244000000,-54.147182,170.40782
5247000000,-54.030605,161.33081
5250000000,-53.981625,151.28946
5253000000,-54.170963,143.20879
5256000000,-54.329975,134.33675
5259000000,-54.710918,125.79118
5262000000,-54.792927,119.07096
5265000000,-54.77317,111.0069
5268000000,-54.850349,103.37801
5271000000,-54.97506,95.833107
5274000000,-54.731815,88.870003
5277000000,-54.697941,81.014336
5280000000,-54.627838,73.78392
5283000000,-54.688965,64.721054
5286000000,-54.526211,55.913288
5289000000,-54.486473,49.496174
5292000000,-54.57114,39.327934
5295000000,-54.674652,29.174191
5298000000,-54.909443,23.562084
5301000000,-55.094036,13.259403
5304000000,-55.076408,7.8974524
5307000000,-54.869286,0.18792546
5310000000,-54.984974,-6.9288821
5313000000,-54.750122,-15.110718
5316000000,-54.717808,-23.612625
5319000000,-54.51841,-30.334785
5322000000,-54.617729,-40.418667
5325000000,-54.524929,-50.007557
5328000000,-54.411613,-58.497128
5331000000,-54.689411,-67.122108
5334000000,-54.690887,-74.482132
5337000000,-55.116783,-84.471962
5340000000,-55.028099,-91.628647
5343000000,-55.020302,-99.65078
5346000000,-55.084278,-106.32178
5349000000,-54.867603,-114.38395
5352000000,-54.531059,-122.96723
5355000000,-54.707226,-130.63297
5358000000,-54.541012,-140.46001
5361000000,-54.43927,-150.77934
5364000000,-54.835766,-159.9261
5367000000,-55.022598,-166.13966
5370000000,-55.307701,-174.56255
5373000000,-55.352646,178.21487
5376000000,-55.051403,172.09422
5379000000,-55.026402,162.51932
5382000000,-55.100266,155.48962
5385000000,-55.17086,147.16583
5388000000,-54.756985,138.61005
5391000000,-55.038986,131.56406
5394000000,-54.820789,122.04131
5397000000,-54.863861,114.76349
5400000000,-54.805382,107.20097
5403000000,-54.912041,95.963272
5406000000,-54.955505,89.285423
5409000000,-55.34499,80.71727
5412000000,-55.168045,74.000381
5415000000,-55.282139,65.618629
5418000000,-55.50209,58.53904
5421000000,-55.131763,50.016235
5424000000,-55.137989,41.809906
5427000000,-55.161457,33.283142
5430000000,-55.319645,26.026358
5433000000,-55.082947,17.037216
5436000000,-55.143234,8.7954197
5439000000,-55.019794,-0.20363885
5442000000,-55.169678,-9.7383795
5445000000,-55.702282,-16.499357
5448000000,-55.355755,-24.297955
5451000000,-55.386433,-30.588367
5454000000,-55.180408,-38.333858
5457000000,-55.330173,-45.098244
5460000000,-55.058403,-54.319881
5463000000,-55.257244,-64.593521
5466000000,-55.24342,-72.323151
5469000000,-55.254654,-80.504707
5472000000,-55.147751,-87.209541
5475000000,-55.16851,-97.599831
5478000000,-55.301586,-106.02959
5481000000,-55.488422,-114.47806
5484000000,-55.385426,-121.23273
5487000000,-55.095264,-131.15579
5490000000,-55.445282,-138.39124
5493000000,-55.200951,-144.65138
5496000000,-55.316292,-154.80394
5499000000,-55.194931,-164.6076
5502000000,-55.035038,-173.15941
5505000000,-55.303654,178.74281
5508000000,-55.539978,169.62781
5511000000,-55.754887,162.15588
5514000000,-55.882748,155.74106
5517000000,-56.055828,148.40434
5520000000,-55.675308,142.84369
5523000000,-55.772366,135.55737
5526000000,-55.478374,125.60386
5529000000,-55.134609,119.35457
5532000000,-55.161118,110.58865
5535000000,-55.369473,100.5743
5538000000,-55.525162,91.178299
5541000000,-55.537426,82.122772
5544000000,-55.724186,74.531296
5547000000,-56.027225,65.71759
5550000000,-55.906174,58.973801
5553000000,-55.93264,53.146515
5556000000,-55.991543,45.121025
5559000000,-55.425705,37.139076
5562000000,-55.365669,29.96253
5565000000,-55.222187,19.94602
5568000000,-55.391476,11.439499
5571000000,-55.216091,1.6316001
5574000000,-55.346245,-6.1240921
5577000000,-55.508842,-17.365982
5580000000,-55.987743,-24.058765
5583000000,-55.924816,-32.189613
5586000000,-56.193398,-38.879978
5589000000,-56.10223,-46.356453
5592000000,-56.011723,-53.464363
5595000000,-55.60931,-60.93716
5598000000,-55.731239,-70.922493
5601000000,-55.591209,-77.585556
5604000000,-55.657803,-86.818359
5607000000,-55.607311,-95.634026
5610000000,-55.709167,-104.3705
5613000000,-55.877483,-112.18938
5616000000,-56.083862,-120.78531
5619000000,-56.070709,-127.55642
5622000000,-56.1408,-136.85378
5625000000,-56.182816,-141.75938
5628000000,-56.369698,-152.09087
5631000000,-55.965282,-157.7679
5634000000,-55.833294,-168.78674
5637000000,-55.985016,-176.05353
5640000000,-55.806583,175.41702
5643000000,-55.70219,165.77672
5646000000,-55.739822,157.22314
5649000000,-56.049168,147.38635
5652000000,-56.178307,138.45709
5655000000,-56.54549,131.22047
5658000000,-56.620171,125.00794
5661000000,-56.887951,117.92062
5664000000,-56.821934,109.25578
5667000000,-56.833782,104.81559
5670000000,-56.530075,97.517899
5673000000,-56.766209,91.743515
5676000000,-56.209858,82.495201
5679000000,-56.200352,71.2332
5682000000,-56.133125,63.845821
5685000000,-56.417942,54.556763
5688000000,-56.205097,44.958424
5691000000,-56.195442,36.967819
5694000000,-56.56945,30.642797
5697000000,-56.749119,21.854342
5700000000,-56.732609,14.107561
5703000000,-56.632587,7.2567902
5706000000,-56.441765,-0.72895336
5709000000,-56.389034,-9.1286192
5712000000,-56.119675,-15.37396
5715000000,-56.401516,-26.907358
5718000000,-56.156456,-33.949474
5721000000,-56.596313,-43.902203
5724000000,-56.498432,-52.380634
5727000000,-56.833763,-59.956257
5730000000,-56.52182,-68.245636
5733000000,-56.94289,-78.618309
5736000000,-56.86977,-81.696114
5739000000,-56.61121,-90.948143
5742000000,-56.509335,-98.257591
5745000000,-56.419865,-103.382
5748000000,-56.276493,-116.10396
5751000000,-56.458736,-124.45171
5754000000,-56.903606,-131.69548
5757000000,-56.733509,-139.09023
5760000000,-56.928635,-143.84442
5763000000,-56.58025,-153.87642
5766000000,-56.653473,-160.63966
5769000000,-56.600861,-169.87354
5772000000,-56.613739,-176.55994
5775000000,-56.819824,174.12471
5778000000,-56.733204,167.37297
5781000000,-56.726269,158.73956
5784000000,-56.759811,148.43149
5787000000,-56.872112,142.48001
5790000000,-56.492847,134.65672
5793000000,-56.429947,126.29229
5796000000,-56.707005,118.34321
5799000000,-56.806473,108.02637
5802000000,-57.017567,101.79344
5805000000,-56.742279,93.87075
5808000000,-56.702106,85.465118
5811000000,-56.967758,77.200516
5814000000,-56.853359,68.520035
5817000000,-57.154018,62.953533
5820000000,-56.901344,53.910103
5823000000,-57.189674,48.255787
5826000000,-56.895912,37.271278
5829000000,-57.209309,31.143528
5832000000,-56.854935,22.533031
5835000000,-57.16116,17.057899
5838000000,-57.00695,6.7386508
5841000000,-57.021885,-2.1195786
5844000000,-56.748665,-12.01221
5847000000,-57.158737,-20.623569
5850000000,-57.558441,-26.522142
5853000000,-56.821659,-31.868856
5856000000,-56.850204,-40.370598
5859000000,-57.182091,-46.557938
5862000000,-56.763927,-56.520039
5865000000,-56.99498,-64.437805
5868000000,-56.663925,-72.093918
5871000000,-56.908298,-84.324661
5874000000,-56.590286,-89.983833
5877000000,-56.834827,-97.454895
5880000000,-56.696461,-106.55204
5883000000,-56.863777,-114.98738
5886000000,-56.897778,-122.2963
5889000000,-57.418461,-128.60178
5892000000,-57.09383,-136.47627
5895000000,-56.894913,-140.80064
5898000000,-56.756332,-151.31612
5901000000,-56.657429,-159.18672
5904000000,-56.89172,-168.58266
5907000000,-56.86924,-178.55101
5910000000,-57.028221,174.32057
5913000000,-56.920509,167.66269
5916000000,-56.965431,159.30931
5919000000,-57.104984,152.73961
5922000000,-57.043564,143.80121
5925000000,-56.76276,137.50688
5928000000,-56.894352,128.26231
5931000000,-56.641979,120.36991
5934000000,-56.927166,111.38873
5937000000,-56.71468,101.74817
5940000000,-57.160526,95.482597
5943000000,-56.736149,85.637459
5946000000,-57.020744,79.557014
5949000000,-56.671593,72.377785
5952000000,-56.648617,65.627609
5955000000,-56.630108,56.018677
5958000000,-56.356209,49.120995
5961000000,-56.564068,41.941711
5964000000,-56.128502,32.734444
5967000000,-56.6534,24.933456
5970000000,-56.470459,15.393257
5973000000,-56.501774,6.7859731
5976000000,-56.426094,-0.61348391
5979000000,-56.532696,-10.393882
5982000000,-56.424202,-16.275043
5985000000,-56.667736,-25.217581
5988000000,-56.425133,-32.658192
5991000000,-56.761627,-38.245468
5994000000,-56.507473,-47.026257
5997000000,-56.320202,-54.81731
6000000000,-56.499264,-64.556793
END

