!CSV A.01.01
!Keysight Technologies,N5227B,US58420762,A.13.80.08
!Date: Tuesday, November 21, 2023 09:34:22
!Source: Standard

BEGIN CH1_DATA
Freq(Hz),S21(DB),S21(DEG)
3000000000,-57.01899,111.1188
3003000000,-56.919147,99.761864
3006000000,-56.927982,87.907921
3009000000,-56.816284,75.96788
3012000000,-56.764267,63.625042
3015000000,-56.72591,52.468098
3018000000,-56.904606,41.941433
3021000000,-56.987206,29.543772
3024000000,-56.966187,18.196861
3027000000,-57.002365,7.1363373
3030000000,-57.039639,-3.9476552
3033000000,-57.117825,-14.312454
3036000000,-57.099644,-25.475847
3039000000,-57.096016,-36.553898
3042000000,-56.791027,-47.610603
3045000000,-56.762356,-61.081528
3048000000,-56.839294,-73.164078
3051000000,-57.00312,-83.750809
3054000000,-57.154381,-94.419952
3057000000,-57.12397,-105.25815
3060000000,-57.272869,-115.80616
3063000000,-57.298954,-126.90163
3066000000,-57.081402,-138.44366
3069000000,-57.222988,-150.36807
3072000000,-57.021042,-161.23245
3075000000,-57.184139,-172.3436
3078000000,-57.245087,176.84941
3081000000,-57.196106,165.3726
3084000000,-56.850143,154.82501
3087000000,-57.069176,142.79712
3090000000,-56.965382,129.14679
3093000000,-57.104103,118.27635
3096000000,-57.197281,107.93737
3099000000,-57.271008,97.244209
3102000000,-57.363777,87.724998
3105000000,-57.167725,76.204063
3108000000,-56.865925,65.180931
3111000000,-56.683254,53.799294
3114000000,-56.809395,40.15937
3117000000,-56.835518,28.359615
3120000000,-56.884716,16.450369
3123000000,-56.968586,5.1984496
3126000000,-57.110432,-6.9134307
3129000000,-57.32576,-18.101276
3132000000,-57.43372,-28.115776
3135000000,-57.40247,-39.816246
3138000000,-57.557243,-48.282166
3141000000,-57.367886,-58.631805
3144000000,-57.192883,-68.531151
3147000000,-56.840675,-80.805511
3150000000,-56.736984,-94.618233
3153000000,-56.628487,-108.32667
3156000000,-56.962074,-121.86866
3159000000,-57.429634,-134.38803
3162000000,-57.819393,-144.1516
3165000000,-58.066154,-152.41077
3168000000,-58.298832,-161.92848
3171000000,-58.059269,-171.78392
3174000000,-57.844627,178.59195
3177000000,-57.542408,168.93347
3180000000,-57.266148,157.27016
3183000000,-56.991528,144.7446
3186000000,-56.883942,131.15417
3189000000,-56.996632,118.07392
3192000000,-57.381863,105.41851
3195000000,-57.503494,94.188873
3198000000,-57.783321,83.69577
3201000000,-57.773922,74.422852
3204000000,-57.808308,64.719757
3207000000,-57.726994,53.80772
3210000000,-57.694672,42.30212
3213000000,-57.662495,31.719282
3216000000,-57.298145,20.006645
3219000000,-57.36451,7.9934072
3222000000,-57.456001,-2.9529486
3225000000,-57.356007,-15.662382
3228000000,-57.488457,-27.17322
3231000000,-57.609936,-37.5173
3234000000,-57.728359,-47.526669
3237000000,-57.690601,-58.729607
3240000000,-57.693497,-69.788277
3243000000,-57.553207,-81.007202
3246000000,-57.630814,-92.235275
3249000000,-57.468342,-103.89126
3252000000,-57.430851,-116.73583
3255000000,-57.586781,-128.9588
3258000000,-57.451794,-139.67342
3261000000,-57.673656,-151.30046
3264000000,-57.861401,-163.91779
3267000000,-57.94799,-173.73428
3270000000,-58.088123,176.21532
3273000000,-58.207119,166.29274
3276000000,-57.893913,153.93924
3279000000,-57.688061,143.30963
3282000000,-57.61253,134.22078
3285000000,-57.870472,121.42951
3288000000,-57.715885,109.69971
3291000000,-57.64204,97.057098
3294000000,-57.86388,84.98642
3297000000,-57.99678,74.776108
3300000000,-58.239956,63.643848
3303000000,-58.348286,54.084076
3306000000,-58.403111,43.517155
3309000000,-58.34864,34.389313
3312000000,-58.255302,23.144642
3315000000,-57.824505,12.227033
3318000000,-57.890625,0.80524749
3321000000,-57.585484,-10.236731
3324000000,-57.80621,-23.007694
3327000000,-57.71653,-34.961559
3330000000,-57.912369,-47.878506
3333000000,-58.085564,-59.77766
3336000000,-58.273838,-69.683121
3339000000,-58.498112,-79.033646
3342000000,-58.37492,-90.763229
3345000000,-58.579803,-100.54787
3348000000,-58.226036,-111.18864
3351000000,-58.181034,-122.44823
3354000000,-57.993752,-134.88524
3357000000,-57.870274,-147.9375
3360000000,-58.035141,-160.60785
3363000000,-58.427303,-170.16615
3366000000,-58.501823,177.66121
3369000000,-58.662663,167.65553
3372000000,-58.600887,155.48129
3375000000,-58.787743,146.08826
3378000000,-58.786091,134.67966
3381000000,-58.738731,124.63393
3384000000,-59.033352,112.05962
3387000000,-58.783653,102.88087
3390000000,-58.89986,92.533737
3393000000,-58.91745,81.055222
3396000000,-58.692062,69.28418
3399000000,-59.103237,58.525967
3402000000,-58.862648,48.256817
3405000000,-58.733585,36.583424
3408000000,-59.068672,25.579315
3411000000,-59.050495,14.925256
3414000000,-58.954609,4.0601106
3417000000,-59.058708,-8.7780943
3420000000,-59.453148,-19.89765
3423000000,-59.532856,-30.937584
3426000000,-59.685287,-41.411945
3429000000,-59.674248,-51.458313
3432000000,-59.607067,-62.255543
3435000000,-59.461323,-70.406891
3438000000,-59.599678,-82.507896
3441000000,-59.289024,-93.370232
3444000000,-59.530819,-104.59437
3447000000,-59.38076,-114.91434
3450000000,-59.314743,-127.12247
3453000000,-59.38707,-138.48843
3456000000,-59.27919,-148.87944
3459000000,-59.058353,-160.37952
3462000000,-59.100693,-172.11517
3465000000,-59.474846,174.79221
3468000000,-59.487953,165.61388
3471000000,-59.691692,155.64397
3474000000,-59.592381,144.65683
3477000000,-59.737564,134.00305
3480000000,-59.609848,124.33605
3483000000,-59.402363,113.18371
3486000000,-59.426285,101.78111
3489000000,-59.34882,89.823372
3492000000,-59.081913,79.223854
3495000000,-59.095406,66.741737
3498000000,-59.291977,55.489437
3501000000,-59.59581,42.808777
3504000000,-59.801403,32.929329
3507000000,-59.973721,22.12282
3510000000,-59.849548,13.751156
3513000000,-59.934017,4.2919397
3516000000,-59.910435,-6.1822901
3519000000,-59.635555,-16.29557
3522000000,-59.525295,-27.430029
3525000000,-59.218914,-38.277683
3528000000,-59.066814,-51.088932
3531000000,-58.917023,-63.357758
3534000000,-59.341816,-75.653023
3537000000,-59.712467,-86.862053
3540000000,-59.511818,-96.518127
3543000000,-59.689392,-106.19273
3546000000,-59.611958,-116.54023
3549000000,-59.246933,-127.91169
3552000000,-59.161274,-140.72122
3555000000,-59.252945,-152.23885
3558000000,-59.04018,-163.3566
3561000000,-59.206856,-173.11937
3564000000,-59.244225,175.74286
3567000000,-59.379128,162.28075
3570000000,-59.705173,151.71283
3573000000,-59.78038,141.75102
3576000000,-59.850178,131.84061
3579000000,-59.592167,120.494
3582000000,-59.335224,109.80745
3585000000,-59.553211,101.07407
3588000000,-59.295822,88.507248
3591000000,-59.112381,77.500511
3594000000,-59.061359,64.937431
3597000000,-58.928902,51.222267
3600000000,-59.125938,40.228558
3603000000,-59.532898,27.730156
3606000000,-59.629856,18.125156
3609000000,-59.634144,9.8119335
3612000000,-60.051929,-1.7509516
3615000000,-59.485142,-11.215555
3618000000,-59.605026,-19.614845
3621000000,-59.50058,-33.095112
3624000000,-58.982903,-43.851284
3627000000,-58.961517,-55.748508
3630000000,-58.638481,-69.112953
3633000000,-58.982262,-83.645851
3636000000,-59.184643,-91.930756
3639000000,-59.536045,-104.47042
3642000000,-59.773338,-114.64004
3645000000,-59.864372,-123.29268
3648000000,-59.749893,-133.70271
3651000000,-59.673885,-147.12495
3654000000,-59.498646,-157.06683
3657000000,-59.464302,-167.21095
3660000000,-59.495857,-179.06215
3663000000,-59.578033,169.43259
3666000000,-59.297451,158.08887
3669000000,-59.56649,145.93915
3672000000,-59.632381,135.01277
3675000000,-59.582588,123.67007
3678000000,-59.575371,112.26379
3681000000,-59.840248,103.18357
3684000000,-59.591087,91.181946
3687000000,-59.649605,79.596275
3690000000,-59.484825,68.328636
3693000000,-59.568657,57.114075
3696000000,-59.83881,45.959293
3699000000,-59.912617,35.434917
3702000000,-59.937794,23.496984
3705000000,-59.82246,14.3396
3708000000,-60.198563,3.6379082
3711000000,-60.112404,-4.3113222
3714000000,-59.958725,-16.898279
3717000000,-59.42588,-28.991844
3720000000,-59.61729,-40.341335
3723000000,-59.541252,-52.967758
3726000000,-59.664352,-63.582458
3729000000,-59.929798,-74.509583
3732000000,-59.780476,-88.247894
3735000000,-59.940342,-98.080475
3738000000,-60.519302,-109.68693
3741000000,-60.473568,-117.86437
3744000000,-60.241344,-128.51158
3747000000,-60.354446,-138.72951
3750000000,-60.342915,-150.46533
3753000000,-59.824635,-159.60313
3756000000,-59.904701,-172.64085
3759000000,-59.95121,173.68694
3762000000,-60.2285,162.1131
3765000000,-60.146778,155.03233
3768000000,-60.285908,142.85826
3771000000,-60.31432,132.6852
3774000000,-60.439121,120.33796
3777000000,-60.357281,110.37588
3780000000,-60.262291,98.642677
3783000000,-60.554428,88.711906
3786000000,-60.653229,80.299232
3789000000,-60.61375,70.633141
3792000000,-60.178555,58.474289
3795000000,-60.023495,46.232563
3798000000,-60.140057,34.2799
3801000000,-59.758854,21.915573
3804000000,-60.241104,9.290822
3807000000,-60.127979,-1.1541425
3810000000,-60.378559,-13.055021
3813000000,-60.711464,-23.231825
3816000000,-60.379505,-33.612896
3819000000,-60.534225,-44.380547
3822000000,-60.642471,-54.878315
3825000000,-60.721981,-63.264328
3828000000,-60.587837,-73.446091
3831000000,-60.404861,-85.193947
3834000000,-60.701294,-96.789497
3837000000,-60.194038,-106.8704
3840000000,-60.054836,-120.02204
3843000000,-60.364513,-129.3412
3846000000,-60.076965,-140.5676
3849000000,-60.407715,-151.31726
3852000000,-60.100193,-165.4437
3855000000,-60.353836,-175.20958
3858000000,-60.368118,172.1922
3861000000,-60.954826,162.86349
3864000000,-60.977428,153.91838
3867000000,-60.890717,144.34712
3870000000,-60.781681,134.38521
3873000000,-60.685307,122.65321
3876000000,-60.324886,113.28654
3879000000,-60.276718,101.42697
3882000000,-59.989285,91.427574
3885000000,-59.710285,79.075287
3888000000,-60.135387,66.599373
3891000000,-59.878807,53.235134
3894000000,-59.917313,41.38932
3897000000,-60.322495,31.578394
3900000000,-60.213173,21.576038
3903000000,-60.545559,10.787601
3906000000,-60.550087,0.2001175
3909000000,-60.577137,-8.2370939
3912000000,-60.3335,-18.699194
3915000000,-59.974937,-30.03797
3918000000,-60.046745,-39.930981
3921000000,-59.83197,-51.56596
3924000000,-59.431599,-64.663658
3927000000,-59.546303,-77.403229
3930000000,-59.543911,-89.377403
3933000000,-59.722679,-98.859665
3936000000,-60.025238,-110.70211
3939000000,-60.054104,-122.26691
3942000000,-60.112843,-131.37706
3945000000,-59.795475,-142.86243
3948000000,-59.779846,-153.48317
3951000000,-59.872887,-164.91866
3954000000,-59.594604,-174.85277
3957000000,-59.879162,175.1675
3960000000,-59.622738,163.39421
3963000000,-59.282673,151.77814
3966000000,-59.384689,141.03328
3969000000,-59.255901,128.2753
3972000000,-59.367859,114.0361
3975000000,-59.385933,103.08813
3978000000,-59.572689,92.935097
3981000000,-59.690784,81.550583
3984000000,-59.926712,71.465256
3987000000,-60.033184,62.467278
3990000000,-60.100132,52.725464
3993000000,-60.015076,42.761009
3996000000,-59.595718,32.271461
3999000000,-59.510532,21.08165
4002000000,-59.284969,7.7388186
4005000000,-59.182629,-5.5134335
4008000000,-59.51075,-17.041664
4011000000,-59.400864,-26.445372
4014000000,-59.387455,-36.609131
4017000000,-59.607014,-48.392708
4020000000,-59.573795,-59.692719
4023000000,-59.311432,-70.764397
4026000000,-59.982853,-82.109825
4029000000,-59.776497,-91.933464
4032000000,-59.810745,-102.90864
4035000000,-59.713535,-111.95399
4038000000,-59.482464,-123.55881
4041000000,-59.30603,-135.17432
4044000000,-58.947407,-147.57393
4047000000,-59.136177,-158.20547
4050000000,-59.232979,-170.40668
4053000000,-59.355541,178.50528
4056000000,-59.247631,163.91856
4059000000,-59.028698,155.84959
4062000000,-59.226486,143.9791
4065000000,-59.462761,132.32133
4068000000,-59.487301,121.8432
4071000000,-59.602283,111.14124
4074000000,-59.632442,100.87268
4077000000,-59.219341,90.037689
4080000000,-59.097607,80.511642
4083000000,-59.257248,68.563026
4086000000,-59.154945,57.397972
4089000000,-59.039948,44.757114
4092000000,-58.994106,34.485615
4095000000,-59.284912,23.173985
4098000000,-59.290894,11.808142
4101000000,-58.871853,0.43926346
4104000000,-59.151104,-12.213133
4107000000,-58.825432,-20.155611
4110000000,-59.169628,-33.05917
4113000000,-59.187378,-42.35672
4116000000,-59.407249,-53.261749
4119000000,-58.840065,-66.331604
4122000000,-59.006371,-75.909225
4125000000,-58.908276,-88.134003
4128000000,-58.656666,-98.830559
4131000000,-58.396614,-110.97404
4134000000,-58.679771,-122.43487
4137000000,-58.648144,-132.30782
4140000000,-58.642262,-143.73097
4143000000,-58.728447,-155.55624
4146000000,-58.848957,-166.18958
4149000000,-59.075378,-178.37711
4152000000,-59.180004,171.88133
4155000000,-59.061481,162.27225
4158000000,-59.019848,149.53084
4161000000,-58.918705,140.2607
4164000000,-58.783546,128.85327
4167000000,-58.708294,117.18484
4170000000,-58.723278,105.50934
4173000000,-58.722248,93.462662
4176000000,-58.647923,84.099503
4179000000,-58.800617,70.556885
4182000000,-58.940403,60.021511
4185000000,-58.665543,51.692734
4188000000,-58.813389,39.645206
4191000000,-58.43787,29.422655
4194000000,-58.476521,17.07444
4197000000,-58.277668,3.0671272
4200000000,-58.563148,-7.6586342
4203000000,-58.511826,-17.873051
4206000000,-58.479687,-29.410774
4209000000,-58.804539,-39.340195
4212000000,-59.079834,-52.759853
4215000000,-58.786114,-63.769413
4218000000,-58.90263,-73.358612
4221000000,-58.570328,-84.128685
4224000000,-58.667931,-94.330948
4227000000,-58.435993,-104.15662
4230000000,-58.315781,-116.50242
4233000000,-58.217163,-128.88518
4236000000,-58.561855,-141.55824
4239000000,-58.551517,-152.20413
4242000000,-58.396042,-164.26465
4245000000,-58.678078,-173.7343
4248000000,-58.560505,174.71907
4251000000,-58.709332,164.66489
4254000000,-58.251923,154.63556
4257000000,-58.547943,142.13754
4260000000,-58.431976,132.12866
4263000000,-58.377052,119.94288
4266000000,-58.154049,109.01674
4269000000,-57.947685,98.308456
4272000000,-57.877037,86.204414
4275000000,-58.240696,73.800369
4278000000,-58.468216,63.468147
4281000000,-58.512871,53.039433
4284000000,-58.561138,42.050663
4287000000,-58.293819,31.444046
4290000000,-58.212772,19.734266
4293000000,-58.270374,8.4276018
4296000000,-58.036491,-3.0624137
4299000000,-58.162682,-15.110519
4302000000,-58.16502,-27.595211
4305000000,-58.237526,-37.249237
4308000000,-58.291149,-49.087963
4311000000,-58.35474,-59.262131
4314000000,-58.088932,-70.069519
4317000000,-58.288532,-79.484863
4320000000,-58.322174,-92.480782
4323000000,-58.345913,-102.55065
4326000000,-57.80566,-114.48893
4329000000,-58.118042,-127.01017
4332000000,-58.275284,-136.32286
4335000000,-58.005157,-147.95042
4338000000,-58.431465,-157.52161
4341000000,-58.106953,-168.15749
4344000000,-57.894604,178.89812
4347000000,-57.892288,166.57133
4350000000,-57.907722,156.65018
4353000000,-58.177132,144.63182
4356000000,-57.97493,133.45035
4359000000,-57.699795,122.708
4362000000,-57.774513,112.09838
4365000000,-57.518986,98.572342
4368000000,-57.62595,88.147667
4371000000,-57.674667,75.595108
4374000000,-57.602806,64.306236
4377000000,-57.750591,54.121006
4380000000,-57.513348,42.413471
4383000000,-57.730492,29.860003
4386000000,-57.634384,19.097322
4389000000,-57.923119,8.3588619
4392000000,-58.040897,-3.0722487
4395000000,-57.951939,-11.319194
4398000000,-57.967598,-21.384485
4401000000,-57.882282,-34.144875
4404000000,-57.809216,-46.116791
4407000000,-57.550282,-54.671558
4410000000,-57.42947,-66.573357
4413000000,-57.349079,-80.347618
4416000000,-57.445045,-92.896126
4419000000,-57.452324,-104.28102
4422000000,-57.429665,-116.88298
4425000000,-57.662827,-124.97218
4428000000,-57.748344,-136.2787
4431000000,-57.85236,-148.11298
4434000000,-57.542713,-159.67961
4437000000,-57.290737,-168.14772
4440000000,-57.437424,178.59804
4443000000,-57.465038,167.14743
4446000000,-57.304386,155.84784
4449000000,-57.448586,142.45634
4452000000,-57.502289,132.16873
4455000000,-57.393055,121.65704
4458000000,-57.433609,110.54044
4461000000,-57.272259,96.850716
4464000000,-57.266148,85.98542
4467000000,-57.366741,74.23838
4470000000,-57.838524,63.796085
4473000000,-57.840084,51.738979
4476000000,-58.062454,41.831177
4479000000,-57.938114,31.167522
4482000000,-58.015221,20.555964
4485000000,-57.846836,11.547271
4488000000,-57.74786,-0.075535268
4491000000,-57.351505,-12.270664
4494000000,-57.358692,-24.959389
4497000000,-57.115158,-35.805779
4500000000,-57.166332,-48.891521
4503000000,-57.521721,-60.264687
4506000000,-57.612682,-72.155586
4509000000,-57.809025,-83.14048
4512000000,-58.079933,-92.716621
4515000000,-57.916309,-101.81122
4518000000,-57.562431,-112.45619
4521000000,-57.415951,-123.60004
4524000000,-57.378407,-135.4171
4527000000,-57.429329,-147.94041
4530000000,-57.247158,-160.53293
4533000000,-57.437782,-172.19878
4536000000,-57.418503,176.32127
4539000000,-57.450516,165.04346
4542000000,-57.414352,154.98828
4545000000,-57.538383,142.34232
4548000000,-57.781784,132.71449
4551000000,-57.539108,121.01063
4554000000,-57.672298,112.31672
4557000000,-57.355976,100.2407
4560000000,-57.324253,88.63192
4563000000,-57.348747,76.59729
4566000000,-57.415771,64.426514
4569000000,-57.470032,53.803444
4572000000,-57.555809,43.128036
4575000000,-57.724117,31.027443
4578000000,-57.792957,19.555973
4581000000,-57.605904,9.0067253
4584000000,-57.671238,-1.2924191
4587000000,-57.581944,-13.399539
4590000000,-57.496433,-24.31258
4593000000,-57.493523,-37.271938
4596000000,-57.544102,-48.780666
4599000000,-57.898804,-59.811592
4602000000,-57.656883,-70.483772
4605000000,-58.03804,-82.041306
4608000000,-57.809338,-90.439758
4611000000,-57.920727,-102.78249
4614000000,-57.707291,-113.70429
4617000000,-57.928261,-125.70704
4620000000,-57.713146,-135.22725
4623000000,-57.717472,-146.19444
4626000000,-57.648636,-157.66417
4629000000,-57.287067,-171.49168
4632000000,-57.505516,177.0428
4635000000,-57.574505,166.38219
4638000000,-57.635059,153.22981
4641000000,-57.980953,142.94043
4644000000,-57.766312,132.33679
4647000000,-57.98539,122.4121
4650000000,-57.785583,112.36214
4653000000,-57.909702,101.9002
4656000000,-57.656235,90.572563
4659000000,-57.605145,77.25795
4662000000,-57.607475,67.213753
4665000000,-57.378773,54.478077
4668000000,-57.503704,42.284245
4671000000,-57.400105,31.21052
4674000000,-57.709213,18.723341
4677000000,-57.902348,5.6907001
4680000000,-57.765274,-3.2868111
4683000000,-57.931953,-12.089165
4686000000,-57.822166,-23.982185
4689000000,-57.900082,-35.232571
4692000000,-58.078102,-45.988934
4695000000,-57.431633,-56.854767
4698000000,-57.710438,-69.69841
4701000000,-57.588081,-81.941963
4704000000,-57.80933,-93.677734
4707000000,-57.684006,-105.18949
4710000000,-57.823662,-116.23548
4713000000,-57.826038,-125.33702
4716000000,-58.128036,-139.10416
4719000000,-58.320946,-148.31107
4722000000,-58.297844,-159.91864
4725000000,-58.30088,-169.43291
4728000000,-57.929661,178.37315
4731000000,-58.03688,167.84978
4734000000,-57.856895,156.81593
4737000000,-57.975471,144.19669
4740000000,-57.972641,134.44862
4743000000,-57.966587,121.06673
4746000000,-58.123955,110.97065
4749000000,-58.287663,100.46103
4752000000,-58.149841,90.490082
4755000000,-58.292145,79.7659
4758000000,-58.145969,67.435684
4761000000,-57.60503,57.02211
4764000000,-57.751007,44.358189
4767000000,-57.875336,32.979542
4770000000,-58.23119,21.99423
4773000000,-58.14851,9.9462252
4776000000,-58.202057,-0.15456069
4779000000,-58.026302,-11.560034
4782000000,-58.302376,-19.688438
4785000000,-58.008087,-33.371407
4788000000,-57.727272,-45.278522
4791000000,-58.119061,-56.808102
4794000000,-58.199924,-67.498444
4797000000,-58.049671,-79.859703
4800000000,-58.151211,-91.051392
4803000000,-58.073364,-101.95162
4806000000,-57.711552,-112.07085
4809000000,-58.11961,-125.07574
4812000000,-57.950954,-137.37746
4815000000,-58.558964,-148.88219
4818000000,-58.417805,-158.69716
4821000000,-58.377522,-168.55057
4824000000,-58.678543,-177.90912
4827000000,-58.499168,170.28508
4830000000,-58.402195,159.4398
4833000000,-58.244144,147.3855
4836000000,-58.268009,134.30971
4839000000,-58.450825,123.34975
4842000000,-58.368073,112.95782
4845000000,-58.169079,103.03571
4848000000,-58.232021,90.553276
4851000000,-58.29108,76.910904
4854000000,-58.276524,67.764572
4857000000,-58.669888,57.029366
4860000000,-58.451122,46.226639
4863000000,-58.623001,36.487743
4866000000,-58.83408,24.009129
4869000000,-58.644886,16.348499
4872000000,-58.429634,2.1319349
4875000000,-58.808586,-7.6274877
4878000000,-58.508022,-20.134165
4881000000,-58.184769,-32.110081
4884000000,-58.651024,-43.478252
4887000000,-58.186031,-54.748203
4890000000,-58.517635,-67.000572
4893000000,-58.85453,-77.388672
4896000000,-58.681679,-90.688118
4899000000,-58.635849,-98.582092
4902000000,-58.570316,-111.55735
4905000000,-58.297989,-120.20539
4908000000,-58.430531,-132.38849
4911000000,-58.394379,-143.33371
4914000000,-58.264744,-156.30048
4917000000,-58.697727,-164.94527
4920000000,-58.667606,-179.76015
4923000000,-58.531898,170.40082
4926000000,-58.842087,161.05278
4929000000,-58.642338,148.14694
4932000000,-58.884361,136.877
4935000000,-58.729874,126.98878
4938000000,-58.912731,114.41383
4941000000,-58.693432,103.88912
4944000000,-58.805744,91.428238
4947000000,-59.000546,79.652458
4950000000,-58.889744,72.166718
4953000000,-58.896591,59.729
4956000000,-58.738274,52.474396
4959000000,-58.66383,38.065876
4962000000,-58.78595,26.27569
4965000000,-58.717655,16.05162
4968000000,-58.648468,3.6019354
4971000000,-58.926025,-8.3065109
4974000000,-58.84277,-18.607086
4977000000,-58.80864,-29.833963
4980000000,-58.844826,-42.401131
4983000000,-58.970474,-51.695118
4986000000,-59.156673,-63.406021
4989000000,-58.980949,-74.56308
4992000000,-59.293701,-84.919373
4995000000,-58.841904,-96.98336
4998000000,-58.910786,-107.53096
5001000000,-58.950996,-118.4788
5004000000,-58.754032,-128.38969
5007000000,-58.733116,-143.54137
5010000000,-58.882008,-153.69904
5013000000,-59.030762,-163.74736
5016000000,-59.095524,-176.56851
5019000000,-59.523376,173.8821
5022000000,-59.327984,164.23418
5025000000,-59.114304,149.90988
5028000000,-59.294136,139.33504
5031000000,-59.15226,129.22266
5034000000,-59.052803,119.94254
5037000000,-59.228386,107.50509
5040000000,-59.352787,94.315269
5043000000,-59.13414,84.786652
5046000000,-58.909882,72.65049
5049000000,-59.210346,62.21825
5052000000,-59.245277,51.16996
5055000000,-59.231514,39.739754
5058000000,-59.47517,28.699608
5061000000,-59.349644,18.196568
5064000000,-59.046745,6.7581067
5067000000,-59.27766,-5.1878362
5070000000,-58.815674,-16.363758
5073000000,-59.289436,-28.631432
5076000000,-59.497959,-40.679333
5079000000,-59.408867,-49.790298
5082000000,-59.674625,-60.93317
5085000000,-59.370468,-70.819099
5088000000,-59.875332,-82.002266
5091000000,-59.941536,-93.613892
5094000000,-59.503139,-106.44219
5097000000,-59.452736,-116.52598
5100000000,-59.52879,-126.67599
5103000000,-59.531498,-138.33244
5106000000,-59.278706,-148.68988
5109000000,-59.346764,-162.04597
5112000000,-59.747173,-170.30965
5115000000,-59.657463,174.57477
5118000000,-59.392303,165.37036
5121000000,-59.916935,152.07956
5124000000,-59.830585,144.31783
5127000000,-59.691833,130.78592
5130000000,-59.680199,121.69016
5133000000,-59.671501,109.92593
5136000000,-59.839142,99.050934
5139000000,-59.394493,85.821686
5142000000,-59.431335,74.317642
5145000000,-59.684216,65.616554
5148000000,-59.484524,53.333149
5151000000,-60.273636,41.818855
5154000000,-59.800133,28.745522
5157000000,-59.89677,19.698679
5160000000,-60.22438,9.5006084
5163000000,-59.97221,0.0016980002
5166000000,-59.965118,-11.60635
5169000000,-59.576012,-24.827316
5172000000,-60.077904,-37.354561
5175000000,-60.20768,-50.193146
5178000000,-60.256729,-59.108574
5181000000,-60.383995,-70.86869
5184000000,-59.877811,-80.759285
5187000000,-60.17099,-90.393402
5190000000,-60.337532,-99.97644
5193000000,-59.725277,-111.69015
5196000000,-59.97683,-124.45161
5199000000,-59.808952,-137.92688
5202000000,-60.01276,-147.72237
5205000000,-60.282055,-159.50754
5208000000,-60.310898,-171.65128
5211000000,-60.327358,-178.03448
5214000000,-60.366211,168.3282
5217000000,-60.207584,157.42599
5220000000,-60.499908,145.22758
5223000000,-59.813271,136.16963
5226000000,-60.360287,125.2195
5229000000,-60.34708,111.42503
5232000000,-60.506161,100.94244
5235000000,-60.757423,87.001183
5238000000,-60.585411,79.207588
5241000000,-60.482521,67.400711
5244000000,-60.66518,58.172981
5247000000,-60.947998,44.545422
5250000000,-60.549229,37.574837
5253000000,-60.998547,26.300428
5256000000,-60.608974,13.79741
5259000000,-60.705025,5.0815291
5262000000,-60.763466,-8.7111225
5265000000,-60.624546,-22.077744
5268000000,-60.769184,-34.301537
5271000000,-60.93354,-42.650627
5274000000,-61.144379,-53.301651
5277000000,-61.281826,-61.311138
5280000000,-60.84119,-70.946518
5283000000,-61.065441,-80.624664
5286000000,-60.430458,-95.013847
5289000000,-60.654789,-106.49568
5292000000,-60.297447,-117.84148
5295000000,-60.74963,-131.04308
5298000000,-60.782066,-142.70024
5301000000,-60.6754,-154.39828
5304000000,-61.203979,-167.39841
5307000000,-61.39695,-178.52005
5310000000,-61.47213,174.96468
5313000000,-61.316856,164.07243
5316000000,-61.528294,154.62476
5319000000,-61.241203,145.53581
5322000000,-61.004456,132.0968
5325000000,-60.778633,116.62608
5328000000,-61.259426,107.1161
5331000000,-61.175678,95.36554
5334000000,-61.509373,84.800087
5337000000,-61.430805,73.777939
5340000000,-61.964458,64.404434
5343000000,-62.254478,53.117874
5346000000,-61.884468,42.605564
5349000000,-62.565964,31.934481
5352000000,-62.249207,20.091276
5355000000,-61.717583,10.200776
5358000000,-61.91695,-2.2748842
5361000000,-62.322758,-10.356799
5364000000,-61.797462,-24.60231
5367000000,-62.100357,-32.416367
5370000000,-61.924751,-45.312733
5373000000,-62.13625,-58.739025
5376000000,-61.898151,-70.535049
5379000000,-62.221497,-78.408691
5382000000,-62.238083,-92.015411
5385000000,-62.389473,-101.72169
5388000000,-62.440163,-117.19084
5391000000,-62.81823,-122.07944
5394000000,-62.705338,-131.24974
5397000000,-62.111755,-143.43475
5400000000,-62.389275,-154.06499
5403000000,-62.443222,-162.2121
5406000000,-61.880836,-178.00328
5409000000,-62.023499,173.83209
5412000000,-62.161507,161.22467
5415000000,-62.624901,146.53957
5418000000,-62.695316,131.92964
5421000000,-62.70636,127.62241
5424000000,-62.796848,117.05114
5427000000,-62.889343,102.2549
5430000000,-63.216244,98.107269
5433000000,-63.46228,88.019684
5436000000,-62.663712,77.327423
5439000000,-62.770054,63.630154
5442000000,-62.287113,54.566391
5445000000,-61.979012,38.936001
5448000000,-62.598022,26.110682
5451000000,-62.055466,17.341188
5454000000,-62.467823,8.4234228
5457000000,-62.581631,-5.4036946
5460000000,-63.066078,-13.315277
5463000000,-63.195309,-24.908106
5466000000,-62.733585,-35.181767
5469000000,-62.816902,-47.832497
5472000000,-63.413956,-56.925251
5475000000,-62.707241,-67.837662
5478000000,-62.278603,-75.310974
5481000000,-62.443619,-89.100098
5484000000,-62.980236,-104.5578
5487000000,-62.937672,-119.43295
5490000000,-62.918697,-128.43352
5493000000,-63.145386,-136.36301
5496000000,-63.51836,-140.23715
5499000000,-62.904434,-148.60954
5502000000,-62.483116,-165.45995
5505000000,-62.722725,-175.55688
5508000000,-62.524067,174.80032
5511000000,-62.496517,159.62442
5514000000,-62.233936,148.38499
5517000000,-62.75808,138.14104
5520000000,-62.956493,120.66664
5523000000,-62.758591,110.9517
5526000000,-63.53949,102.59499
5529000000,-63.424488,95.852882
5532000000,-62.964611,84.855232
5535000000,-62.792549,79.740723
5538000000,-62.799824,67.904533
5541000000,-62.514454,51.355038
5544000000,-62.85704,39.870407
5547000000,-62.601734,24.435349
5550000000,-63.090248,16.258837
5553000000,-62.766933,1.0821989
5556000000,-62.987938,-7.8999581
5559000000,-63.726448,-22.045073
5562000000,-64.287415,-29.017298
5565000000,-63.714703,-33.61116
5568000000,-64.147964,-47.599693
5571000000,-64.332298,-53.785835
5574000000,-62.979336,-68.432007
5577000000,-62.672649,-77.001503
5580000000,-62.937584,-88.308983
5583000000,-62.264095,-101.73369
5586000000,-62.459717,-123.06048
5589000000,-63.325703,-127.1356
5592000000,-62.84753,-139.15631
5595000000,-63.321983,-148.88332
5598000000,-64.272797,-153.01428
5601000000,-64.248177,-162.68504
5604000000,-63.111633,-179.70135
5607000000,-62.988224,174.32423
5610000000,-63.270977,162.51006
5613000000,-62.72459,148.5596
5616000000,-63.576416,132.4238
5619000000,-62.957382,123.44004
5622000000,-62.803959,113.25261
5625000000,-63.242264,98.068001
5628000000,-62.94812,88.15876
5631000000,-63.283253,77.722321
5634000000,-64.247375,64.634499
5637000000,-63.897488,56.680576
5640000000,-63.971519,49.744602
5643000000,-63.915897,36.39764
5646000000,-63.991974,28.892323
5649000000,-63.328911,17.923157
5652000000,-62.679657,8.7872152
5655000000,-63.155441,-10.440369
5658000000,-63.065495,-18.285957
5661000000,-63.074135,-32.176025
5664000000,-63.880985,-38.576237
5667000000,-63.604309,-52.894672
5670000000,-63.724522,-62.315613
5673000000,-63.543941,-70.137344
5676000000,-63.917183,-80.508163
5679000000,-64.334381,-92.237923
5682000000,-63.987953,-98.573326
5685000000,-64.125137,-109.28735
5688000000,-63.382484,-126.8446
5691000000,-63.715683,-130.22949
5694000000,-63.004688,-147.67676
5697000000,-63.150917,-162.11459
5700000000,-63.888306,-171.43639
5703000000,-63.305374,-178.72173
5706000000,-63.283489,167.0885
5709000000,-63.818241,152.05264
5712000000,-64.078758,144.89949
5715000000,-64.34343,137.41641
5718000000,-63.442009,125.48531
5721000000,-63.582226,112.96466
5724000000,-63.693199,106.07462
5727000000,-63.521828,94.41993
5730000000,-64.503746,78.901749
5733000000,-64.069122,79.008202
5736000000,-63.411625,64.535294
5739000000,-63.535004,53.01125
5742000000,-63.404064,40.437328
5745000000,-63.59631,27.219799
5748000000,-62.792713,14.274519
5751000000,-63.603054,1.596603
5754000000,-63.863079,-3.4224608
5757000000,-63.751575,-16.609169
5760000000,-64.384071,-26.173971
5763000000,-63.970066,-35.550457
5766000000,-63.802956,-46.025845
5769000000,-63.929417,-58.655861
5772000000,-63.571472,-62.896271
5775000000,-63.624779,-80.413322
5778000000,-63.056087,-91.680534
5781000000,-63.350906,-108.74603
5784000000,-63.060276,-117.16341
5787000000,-63.041847,-126.77774
5790000000,-64.016899,-134.56082
5793000000,-64.062065,-144.80975
5796000000,-64.211716,-155.08525
5799000000,-63.627853,-161.69731
5802000000,-63.626846,-175.40495
5805000000,-63.423309,175.51321
5808000000,-63.306343,159.79367
5811000000,-63.159504,146.11896
5814000000,-63.741608,138.0162
5817000000,-63.410015,125.50821
5820000000,-63.491558,116.41277
5823000000,-63.827393,102.71027
5826000000,-64.392075,95.484596
5829000000,-63.581306,87.725601
5832000000,-63.839661,75.722351
5835000000,-62.850674,64.862808
5838000000,-63.917526,53.122673
5841000000,-63.112972,45.141663
5844000000,-62.689903,22.671179
5847000000,-63.525707,11.386101
5850000000,-63.64484,3.2971327
5853000000,-64.341652,-5.9877682
5856000000,-63.543907,-14.155299
5859000000,-64.565948,-27.286882
5862000000,-64.553894,-35.686554
5865000000,-63.771923,-45.991779
5868000000,-62.841427,-52.047234
5871000000,-63.474991,-69.332886
5874000000,-63.208809,-74.457329
5877000000,-63.073071,-89.782486
5880000000,-63.723515,-103.63328
5883000000,-63.318539,-116.02293
5886000000,-64.134476,-124.73327
5889000000,-64.500099,-130.61522
5892000000,-63.828327,-142.18738
5895000000,-63.450909,-148.13631
5898000000,-63.724686,-165.09697
5901000000,-63.705185,-177.01447
5904000000,-63.483696,171.32729
5907000000,-62.925453,160.93619
5910000000,-63.514744,147.44595
5913000000,-63.973858,141.54486
5916000000,-63.074944,132.75122
5919000000,-63.945503,116.93612
5922000000,-63.838165,113.5615
5925000000,-63.424755,97.909584
5928000000,-63.113148,83.952614
5931000000,-62.697906,73.436714
5934000000,-63.278294,66.204239
5937000000,-63.529121,53.507214
5940000000,-63.18354,39.806458
5943000000,-62.436184,34.172924
5946000000,-62.799725,18.403521
5949000000,-62.708889,3.9041409
5952000000,-64.026581,-5.6379237
5955000000,-64.048668,-16.12244
5958000000,-63.651718,-26.015486
5961000000,-63.010406,-32.566006
5964000000,-62.710228,-47.339745
5967000000,-62.468761,-59.693401
5970000000,-63.651546,-69.680687
5973000000,-63.283558,-85.070351
5976000000,-62.883236,-87.900764
5979000000,-63.546127,-99.369087
5982000000,-62.699554,-109.69127
5985000000,-62.830109,-120.92295
5988000000,-62.783939,-135.79378
5991000000,-63.040733,-148.04512
5994000000,-62.764328,-154.0497
5997000000,-63.11063,-167.55591
6000000000,-63.590881,179.97597
END

