!CSV A.01.01
!Keysight Technologies,N5227B,US58420762,A.13.80.08
!Date: Tuesday, November 21, 2023 09:52:24
!Source: Standard

BEGIN CH1_DATA
Time(s),S21(DB),S21(DEG)
5e-009,-118.87108,-147.65361
5.015e-009,-118.16257,-124.60253
5.03e-009,-117.54446,-101.47723
5.045e-009,-117.01181,-78.288048
5.06e-009,-116.56071,-55.037312
5.075e-009,-116.18813,-31.732077
5.09e-009,-115.89199,-8.3770504
5.105e-009,-115.67024,15.0265
5.12e-009,-115.52228,38.472275
5.135e-009,-115.44721,61.961613
5.15e-009,-115.44503,85.492485
5.165e-009,-115.51644,109.0622
5.18e-009,-115.6625,132.67352
5.195e-009,-115.88481,156.32977
5.21e-009,-116.18592,-179.96635
5.225e-009,-116.56868,-156.20822
5.24e-009,-117.03706,-132.38672
5.255e-009,-117.5955,-108.48695
5.27e-009,-118.25076,-84.491096
5.285e-009,-119.00938,-60.368183
5.3e-009,-119.88081,-36.081337
5.315e-009,-120.87543,-11.565471
5.33e-009,-122.00593,13.263634
5.345e-009,-123.28722,38.547195
5.36e-009,-124.73407,64.495697
5.375e-009,-126.35856,91.449593
5.39e-009,-128.1566,119.94118
5.405e-009,-130.07933,150.76013
5.42e-009,-131.96594,-175.14996
5.435e-009,-133.46756,-137.50392
5.45e-009,-134.17819,-98.285881
5.465e-009,-134.04985,-61.349449
5.48e-009,-133.44501,-29.102791
5.495e-009,-132.71005,-1.5574332
5.51e-009,-131.99158,22.162317
5.525e-009,-131.29987,42.934994
5.54e-009,-130.58435,61.523129
5.555e-009,-129.78436,78.675613
5.57e-009,-128.86461,95.159187
5.585e-009,-127.82809,111.6687
5.6e-009,-126.71275,128.69865
5.615e-009,-125.56809,146.5094
5.63e-009,-124.44037,165.16063
5.645e-009,-123.36396,-175.40019
5.66e-009,-122.36053,-155.27373
5.675e-009,-121.44231,-134.57176
5.69e-009,-120.61513,-113.39998
5.705e-009,-119.88038,-91.844238
5.72e-009,-119.2377,-69.976639
5.735e-009,-118.6852,-47.85479
5.75e-009,-118.22079,-25.523298
5.765e-009,-117.84206,-3.0189164
5.78e-009,-117.54721,19.632523
5.795e-009,-117.33432,42.409767
5.81e-009,-117.20214,65.298744
5.825e-009,-117.14964,88.288391
5.84e-009,-117.1764,111.37568
5.855e-009,-117.28243,134.55959
5.87e-009,-117.46816,157.84744
5.885e-009,-117.73464,-178.74962
5.9e-009,-118.08283,-155.20834
5.915e-009,-118.51469,-131.49918
5.93e-009,-119.03214,-107.57458
5.945e-009,-119.63651,-83.369232
5.96e-009,-120.32887,-58.790676
5.975e-009,-121.10816,-33.711823
5.99e-009,-121.96843,-7.9542017
6.005e-009,-122.89429,18.711304
6.02e-009,-123.85379,46.576859
6.035e-009,-124.7854,75.939575
6.05e-009,-125.58734,106.98085
6.065e-009,-126.12488,139.51198
6.08e-009,-126.27711,172.7747
6.095e-009,-126.01186,-154.39085
6.11e-009,-125.40482,-122.99464
6.125e-009,-124.5855,-93.475372
6.14e-009,-123.66895,-65.78299
6.155e-009,-122.73082,-39.612907
6.17e-009,-121.81261,-14.623748
6.185e-009,-120.93463,9.4895487
6.2e-009,-120.10568,32.975544
6.215e-009,-119.32898,56.024158
6.23e-009,-118.60587,78.781944
6.245e-009,-117.93681,101.359
6.26e-009,-117.32243,123.83672
6.275e-009,-116.7634,146.27805
6.29e-009,-116.26099,168.7265
6.305e-009,-115.81651,-168.7834
6.32e-009,-115.43158,-146.23129
6.335e-009,-115.10812,-123.59792
6.35e-009,-114.84805,-100.87228
6.365e-009,-114.65364,-78.045135
6.38e-009,-114.52743,-55.109413
6.395e-009,-114.47233,-32.058266
6.41e-009,-114.4917,-8.8848085
6.425e-009,-114.5895,14.420115
6.44e-009,-114.77061,37.868092
6.455e-009,-115.04063,61.476818
6.47e-009,-115.40688,85.268654
6.485e-009,-115.87804,109.27831
6.5e-009,-116.46507,133.55588
6.515e-009,-117.18185,158.17468
6.53e-009,-118.04613,-176.75264
6.545e-009,-119.07993,-151.04849
6.56e-009,-120.31023,-124.42468
6.575e-009,-121.76591,-96.391418
6.59e-009,-123.46329,-66.097839
6.605e-009,-125.35226,-32.087425
6.62e-009,-127.15566,7.6351919
6.635e-009,-128.1637,53.419018
6.65e-009,-127.75322,99.941055
6.665e-009,-126.37722,140.884
6.68e-009,-124.81544,175.69482
6.695e-009,-123.42487,-153.67625
6.71e-009,-122.2868,-125.64046
6.725e-009,-121.39531,-99.259232
6.74e-009,-120.72618,-74.007996
6.755e-009,-120.25587,-49.594067
6.77e-009,-119.96541,-25.857826
6.785e-009,-119.8413,-2.7226398
6.8e-009,-119.87363,19.826462
6.815e-009,-120.05514,41.759075
6.83e-009,-120.38004,62.996994
6.845e-009,-120.84103,83.413071
6.86e-009,-121.4261,102.82455
6.875e-009,-122.11324,120.99184
6.89e-009,-122.85914,137.64006
6.905e-009,-123.59123,152.54309
6.92e-009,-124.20042,165.67815
6.935e-009,-124.56786,177.47493
6.95e-009,-124.61811,-171.15176
6.965e-009,-124.37492,-159.12129
6.98e-009,-123.94364,-145.69704
6.995e-009,-123.45087,-130.67038
7.01e-009,-122.9994,-114.19118
7.025e-009,-122.65789,-96.56514
7.04e-009,-122.47083,-78.121117
7.055e-009,-122.46963,-59.171097
7.07e-009,-122.68284,-40.020752
7.085e-009,-123.14288,-21.009727
7.1e-009,-123.89181,-2.5870492
7.115e-009,-124.98339,14.53244
7.13e-009,-126.47343,29.02323
7.145e-009,-128.32776,38.26226
7.16e-009,-130.01312,38.083275
7.175e-009,-129.96829,29.637966
7.19e-009,-127.80264,26.621862
7.205e-009,-125.12016,34.088669
7.22e-009,-122.72649,48.094719
7.235e-009,-120.72575,65.549942
7.25e-009,-119.06784,84.896187
7.265e-009,-117.69218,105.35946
7.28e-009,-116.55085,126.51896
7.295e-009,-115.60926,148.13306
7.31e-009,-114.84253,170.04688
7.325e-009,-114.23303,-167.84341
7.34e-009,-113.76847,-145.61526
7.355e-009,-113.44073,-123.32964
7.37e-009,-113.24483,-101.04185
7.385e-009,-113.17857,-78.805336
7.4e-009,-113.24233,-56.678463
7.415e-009,-113.43861,-34.729504
7.43e-009,-113.77204,-13.044964
7.445e-009,-114.24949,8.2600164
7.46e-009,-114.87861,29.02449
7.475e-009,-115.66684,49.018963
7.49e-009,-116.61658,67.906281
7.505e-009,-117.71398,85.197235
7.52e-009,-118.90452,100.23074
7.535e-009,-120.04859,112.31152
7.55e-009,-120.88621,121.30034
7.565e-009,-121.12842,128.56236
7.58e-009,-120.71638,136.78214
7.595e-009,-119.89207,147.96104
7.61e-009,-118.95504,162.42381
7.625e-009,-118.09617,179.59689
7.64e-009,-117.40411,-161.19655
7.655e-009,-116.91425,-140.46751
7.67e-009,-116.64124,-118.54094
7.685e-009,-116.59486,-95.587273
7.7e-009,-116.78747,-71.644608
7.715e-009,-117.23782,-46.610435
7.73e-009,-117.97205,-20.19286
7.745e-009,-119.01841,8.2119741
7.76e-009,-120.38136,39.768772
7.775e-009,-121.93478,76.515213
7.79e-009,-123.14027,120.6357
7.805e-009,-123.00956,169.63692
7.82e-009,-121.435,-145.10793
7.835e-009,-119.38753,-107.23115
7.85e-009,-117.49388,-74.805656
7.865e-009,-115.9205,-45.662487
7.88e-009,-114.67618,-18.520443
7.895e-009,-113.73978,7.2940445
7.91e-009,-113.09288,32.117249
7.925e-009,-112.72893,56.078075
7.94e-009,-112.65501,79.145561
7.955e-009,-112.89378,101.11185
7.97e-009,-113.48334,121.4893
7.985e-009,-114.46843,139.25778
8e-009,-115.83527,152.31142
8.015e-009,-117.2173,157.00319
8.03e-009,-117.32104,152.43112
8.045e-009,-115.26512,149.73058
8.06e-009,-112.34887,157.00304
8.075e-009,-109.59839,171.57404
8.09e-009,-107.22538,-169.86736
8.105e-009,-105.2049,-149.08624
8.12e-009,-103.48077,-126.95374
8.135e-009,-102.00521,-103.91553
8.15e-009,-100.7429,-80.204391
8.165e-009,-99.668686,-55.939648
8.18e-009,-98.765152,-31.169237
8.195e-009,-98.020294,-5.8911939
8.21e-009,-97.42598,19.941399
8.225e-009,-96.976105,46.421322
8.24e-009,-96.664383,73.696777
8.255e-009,-96.480453,101.98425
8.27e-009,-96.402832,131.58182
8.285e-009,-96.386452,162.86078
8.3e-009,-96.344482,-163.81262
8.315e-009,-96.134842,-128.31166
8.33e-009,-95.585114,-91.129639
8.345e-009,-94.583923,-53.534645
8.36e-009,-93.167587,-17.016794
8.375e-009,-91.486954,17.519545
8.39e-009,-89.701538,49.938038
8.405e-009,-87.920197,80.529915
8.42e-009,-86.2006,109.6884
8.435e-009,-84.567436,137.76205
8.45e-009,-83.02784,165.02103
8.465e-009,-81.580589,-168.33549
8.48e-009,-80.220909,-142.16251
8.495e-009,-78.942825,-116.35434
8.51e-009,-77.740227,-90.833221
8.525e-009,-76.607368,-65.541229
8.54e-009,-75.539017,-40.434597
8.555e-009,-74.530518,-15.479871
8.57e-009,-73.577751,9.3489275
8.585e-009,-72.677071,34.072124
8.6e-009,-71.825287,58.705868
8.615e-009,-71.019577,83.263069
8.63e-009,-70.257439,107.7542
8.645e-009,-69.536674,132.18776
8.66e-009,-68.855316,156.57077
8.675e-009,-68.211624,-179.09103
8.69e-009,-67.604042,-154.79279
8.705e-009,-67.031189,-130.5305
8.72e-009,-66.491806,-106.3008
8.735e-009,-65.984787,-82.100868
8.75e-009,-65.509132,-57.928303
8.765e-009,-65.063942,-33.781101
8.78e-009,-64.648407,-9.6575613
8.795e-009,-64.26181,14.443734
8.81e-009,-63.903507,38.523987
8.825e-009,-63.57291,62.58419
8.84e-009,-63.269512,86.625145
8.855e-009,-62.992855,110.64751
8.87e-009,-62.742531,134.65181
8.885e-009,-62.5182,158.63843
8.9e-009,-62.31955,-177.3924
8.915e-009,-62.146328,-153.44046
8.93e-009,-61.998318,-129.50572
8.945e-009,-61.875355,-105.58823
8.96e-009,-61.777306,-81.688148
8.975e-009,-61.704075,-57.805679
8.99e-009,-61.655624,-33.941177
9.005e-009,-61.631939,-10.095077
9.02e-009,-61.633045,13.732096
9.035e-009,-61.659016,37.539684
9.05e-009,-61.709965,61.326931
9.065e-009,-61.786045,85.092934
9.08e-009,-61.887459,108.83669
9.095e-009,-62.01445,132.55699
9.11e-009,-62.167316,156.25253
9.125e-009,-62.346405,179.92174
9.14e-009,-62.552128,-156.43715
9.155e-009,-62.784943,-132.8261
9.17e-009,-63.045387,-109.24745
9.185e-009,-63.334072,-85.703796
9.2e-009,-63.651684,-62.19817
9.215e-009,-63.998993,-38.734047
9.23e-009,-64.376884,-15.315465
9.245e-009,-64.786346,8.0528841
9.26e-009,-65.228493,31.365513
9.275e-009,-65.704575,54.615967
9.29e-009,-66.216011,77.796593
9.305e-009,-66.764397,100.89828
9.32e-009,-67.35154,123.91007
9.335e-009,-67.979462,146.81868
9.35e-009,-68.650459,169.60786
9.365e-009,-69.367119,-167.74243
9.38e-009,-70.132324,-145.25717
9.395e-009,-70.949287,-122.96787
9.41e-009,-71.821495,-100.91471
9.425e-009,-72.75267,-79.149475
9.44e-009,-73.746513,-57.739586
9.455e-009,-74.806282,-36.773746
9.47e-009,-75.933884,-16.369219
9.485e-009,-77.12812,3.3192208
9.5e-009,-78.381508,22.090397
9.515e-009,-79.674583,39.694443
9.53e-009,-80.967148,55.853241
9.545e-009,-82.187721,70.336617
9.56e-009,-83.23027,83.129501
9.575e-009,-83.976372,94.649963
9.59e-009,-84.351379,105.80154
9.605e-009,-84.374039,117.64538
9.62e-009,-84.143089,130.91942
9.635e-009,-83.777206,145.85689
9.65e-009,-83.370132,162.33595
9.665e-009,-82.980331,-179.90637
9.68e-009,-82.638817,-161.14336
9.695e-009,-82.359406,-141.60796
9.71e-009,-82.146393,-121.48386
9.725e-009,-81.999077,-100.91145
9.74e-009,-81.91436,-79.996994
9.755e-009,-81.888054,-58.820942
9.77e-009,-81.915604,-37.444572
9.785e-009,-81.992386,-15.91484
9.8e-009,-82.113838,5.7322831
9.815e-009,-82.27552,27.469215
9.83e-009,-82.473106,49.275135
9.845e-009,-82.702347,71.134758
9.86e-009,-82.959038,93.037529
9.875e-009,-83.239021,114.97715
9.89e-009,-83.538139,136.95103
9.905e-009,-83.852249,158.9603
9.92e-009,-84.177208,-178.99077
9.935e-009,-84.508926,-156.8947
9.95e-009,-84.843369,-134.74133
9.965e-009,-85.176628,-112.51819
9.98e-009,-85.504951,-90.211098
9.995e-009,-85.824776,-67.804771
1.001e-008,-86.132835,-45.283798
1.0025e-008,-86.42614,-22.633509
1.004e-008,-86.702057,0.15900362
1.0055e-008,-86.958313,23.103964
1.007e-008,-87.193069,46.208065
1.0085e-008,-87.4049,69.473785
1.01e-008,-87.592865,92.89917
1.0115e-008,-87.756546,116.47752
1.013e-008,-87.896027,140.19783
1.0145e-008,-88.011986,164.04539
1.016e-008,-88.105659,-171.99744
1.0175e-008,-88.178833,-147.95015
1.019e-008,-88.233803,-123.83314
1.0205e-008,-88.273354,-99.666397
1.022e-008,-88.300591,-75.468842
1.0235e-008,-88.318924,-51.25724
1.025e-008,-88.331932,-27.046038
1.0265e-008,-88.343246,-2.8467474
1.028e-008,-88.356499,21.331898
1.0295e-008,-88.375259,45.484135
1.031e-008,-88.402931,69.606857
1.0325e-008,-88.442787,93.699387
1.034e-008,-88.49794,117.76334
1.0355e-008,-88.571312,141.80228
1.037e-008,-88.665718,165.82162
1.0385e-008,-88.783829,-170.17163
1.04e-008,-88.928253,-146.16884
1.0415e-008,-89.101547,-122.15974
1.043e-008,-89.30629,-98.132423
1.0445e-008,-89.54512,-74.073006
1.046e-008,-89.82077,-49.965363
1.0475e-008,-90.136154,-25.790419
1.049e-008,-90.4944,-1.5256208
1.0505e-008,-90.898903,22.856276
1.052e-008,-91.353394,47.388798
1.0535e-008,-91.861885,72.113686
1.055e-008,-92.428726,97.084061
1.0565e-008,-93.058403,122.36849
1.058e-008,-93.755211,148.0571
1.0595e-008,-94.522423,174.26933
1.061e-008,-95.360779,-158.83505
1.0625e-008,-96.265305,-131.04433
1.064e-008,-97.219536,-102.08661
1.0655e-008,-98.1856,-71.64183
1.067e-008,-99.09095,-39.412598
1.0685e-008,-99.819878,-5.3064694
1.07e-008,-100.23341,30.28524
1.0715e-008,-100.23531,66.364052
1.073e-008,-99.840103,101.68972
1.0745e-008,-99.161728,135.39584
1.076e-008,-98.337883,167.22914
1.0775e-008,-97.474045,-162.64653
1.079e-008,-96.633209,-133.91847
1.0805e-008,-95.846771,-106.27664
1.082e-008,-95.127541,-79.465965
1.0835e-008,-94.478508,-53.290932
1.085e-008,-93.89782,-27.605581
1.0865e-008,-93.381485,-2.3019242
1.088e-008,-92.924728,22.700497
1.0895e-008,-92.522636,47.461788
1.091e-008,-92.170433,72.027313
1.0925e-008,-91.863564,96.431526
1.094e-008,-91.597794,120.70108
1.0955e-008,-91.369095,144.85635
1.097e-008,-91.173676,168.91307
1.0985e-008,-91.007912,-167.11646
1.1e-008,-90.868286,-143.22247
1.1015e-008,-90.751411,-119.39767
1.103e-008,-90.653954,-95.636047
1.1045e-008,-90.572632,-71.932899
1.106e-008,-90.504189,-48.284168
1.1075e-008,-90.445457,-24.686665
1.109e-008,-90.393265,-1.1370958
1.1105e-008,-90.344566,22.367455
1.112e-008,-90.296379,45.830257
1.1135e-008,-90.245934,69.254707
1.115e-008,-90.190575,92.644798
1.1165e-008,-90.127953,116.00488
1.118e-008,-90.055984,139.33983
1.1195e-008,-89.972961,162.65503
1.121e-008,-89.877525,-174.04375
1.1225e-008,-89.768776,-150.75052
1.124e-008,-89.646233,-127.45916
1.1255e-008,-89.509842,-104.16369
1.127e-008,-89.360008,-80.858383
1.1285e-008,-89.19751,-57.537945
1.13e-008,-89.023483,-34.197735
1.1315e-008,-88.839363,-10.833772
1.133e-008,-88.646843,12.557153
1.1345e-008,-88.447784,35.977486
1.136e-008,-88.244171,59.428909
1.1375e-008,-88.038071,82.912376
1.139e-008,-87.831543,106.42828
1.1405e-008,-87.626648,129.97649
1.142e-008,-87.425377,153.55643
1.1435e-008,-87.229637,177.16721
1.145e-008,-87.041229,-159.19229
1.1465e-008,-86.861839,-135.52328
1.148e-008,-86.693039,-111.82714
1.1495e-008,-86.536278,-88.105186
1.151e-008,-86.392868,-64.358665
1.1525e-008,-86.264015,-40.58881
1.154e-008,-86.150818,-16.796661
1.1555e-008,-86.05426,7.0167966
1.157e-008,-85.97525,30.850798
1.1585e-008,-85.914574,54.704712
1.16e-008,-85.872993,78.578094
1.1615e-008,-85.851166,102.4707
1.163e-008,-85.849701,126.38242
1.1645e-008,-85.869171,150.3134
1.166e-008,-85.910095,174.26396
1.1675e-008,-85.972969,-161.76537
1.169e-008,-86.05825,-137.77382
1.1705e-008,-86.166405,-113.76049
1.172e-008,-86.297859,-89.724159
1.1735e-008,-86.453056,-65.663353
1.175e-008,-86.632439,-41.576344
1.1765e-008,-86.836464,-17.461149
1.178e-008,-87.06559,6.6846395
1.1795e-008,-87.320313,30.863724
1.181e-008,-87.601151,55.079212
1.1825e-008,-87.908661,79.334785
1.184e-008,-88.243454,103.63449
1.1855e-008,-88.606186,127.98315
1.187e-008,-88.997559,152.38631
1.1885e-008,-89.418365,176.85025
1.19e-008,-89.869469,-158.61758
1.1915e-008,-90.351799,-134.00862
1.193e-008,-90.866402,-109.31271
1.1945e-008,-91.414413,-84.518066
1.196e-008,-91.99707,-59.610615
1.1975e-008,-92.615715,-34.573505
1.199e-008,-93.271759,-9.386569
1.2005e-008,-93.966682,15.974404
1.202e-008,-94.701981,41.539173
1.2035e-008,-95.479057,67.344078
1.205e-008,-96.299019,93.433746
1.2065e-008,-97.162407,119.86339
1.208e-008,-98.068794,146.70107
1.2095e-008,-99.015862,174.03032
1.211e-008,-99.998314,-158.04814
1.2125e-008,-101.006,-129.41731
1.214e-008,-102.02149,-99.95015
1.2155e-008,-103.01696,-69.527336
1.217e-008,-103.9522,-38.074757
1.2185e-008,-104.77564,-5.6198053
1.22e-008,-105.43252,27.648188
1.2215e-008,-105.88065,61.358616
1.223e-008,-106.10751,95.025551
1.2245e-008,-106.13574,128.18573
1.226e-008,-106.01302,160.52139
1.2275e-008,-105.79418,-168.10306
1.229e-008,-105.52742,-137.67769
1.2305e-008,-105.24879,-108.11176
1.232e-008,-104.98233,-79.282478
1.2335e-008,-104.74277,-51.067493
1.235e-008,-104.53841,-23.357342
1.2365e-008,-104.37348,3.9397066
1.238e-008,-104.24967,30.898724
1.2395e-008,-104.16727,57.579411
1.241e-008,-104.12578,84.029274
1.2425e-008,-104.12448,110.28553
1.244e-008,-104.16254,136.37758
1.2455e-008,-104.23925,162.3284
1.247e-008,-104.35416,-171.84412
1.2485e-008,-104.50708,-146.12622
1.25e-008,-104.69817,-120.5071
1.2515e-008,-104.92802,-94.978821
1.253e-008,-105.19763,-69.535355
1.2545e-008,-105.5085,-44.173012
1.256e-008,-105.86266,-18.888577
1.2575e-008,-106.26278,6.3183513
1.259e-008,-106.71229,31.448746
1.2605e-008,-107.21564,56.500103
1.262e-008,-107.77828,81.469658
1.2635e-008,-108.40726,106.35181
1.265e-008,-109.11144,131.13837
1.2665e-008,-109.90263,155.81691
1.268e-008,-110.79622,-179.63226
1.2695e-008,-111.81304,-155.23961
1.271e-008,-112.98252,-131.05318
1.2725e-008,-114.34752,-107.1592
1.274e-008,-115.9737,-83.709053
1.2755e-008,-117.96955,-61.016705
1.277e-008,-120.52877,-39.810532
1.2785e-008,-124.03693,-22.222126
1.28e-008,-129.20076,-17.092438
1.2815e-008,-132.65025,-55.435959
1.283e-008,-127.29074,-75.252556
1.2845e-008,-122.97649,-63.510418
1.286e-008,-120.0399,-44.21653
1.2875e-008,-117.87717,-22.399645
1.289e-008,-116.19021,0.54056847
1.2905e-008,-114.82304,24.085493
1.292e-008,-113.68555,47.994362
1.2935e-008,-112.72085,72.149628
1.295e-008,-111.89082,96.482933
1.2965e-008,-111.16875,120.95452
1.298e-008,-110.53489,145.54243
1.2995e-008,-109.97417,170.23062
1.301e-008,-109.47454,-164.9899
1.3025e-008,-109.02671,-140.12627
1.304e-008,-108.6228,-115.183
1.3055e-008,-108.25601,-90.163193
1.307e-008,-107.92075,-65.070023
1.3085e-008,-107.6122,-39.907104
1.31e-008,-107.32589,-14.677483
1.3115e-008,-107.05823,10.614235
1.313e-008,-106.8059,35.963554
1.3145e-008,-106.56615,61.364758
1.316e-008,-106.33654,86.811966
1.3175e-008,-106.11504,112.29872
1.319e-008,-105.90009,137.81749
1.3205e-008,-105.69039,163.36064
1.322e-008,-105.48506,-171.07877
1.3235e-008,-105.28355,-145.50821
1.325e-008,-105.08553,-119.93443
1.3265e-008,-104.89105,-94.363937
1.328e-008,-104.7003,-68.802269
1.3295e-008,-104.51373,-43.253792
1.331e-008,-104.33191,-17.721931
1.3325e-008,-104.15549,7.7904038
1.334e-008,-103.98525,33.282345
1.3355e-008,-103.82196,58.753029
1.337e-008,-103.66637,84.203491
1.3385e-008,-103.51925,109.63464
1.34e-008,-103.38123,135.04921
1.3415e-008,-103.25295,160.45015
1.343e-008,-103.1349,-174.15918
1.3445e-008,-103.02743,-148.77481
1.346e-008,-102.93084,-123.39219
1.3475e-008,-102.84526,-98.007141
1.349e-008,-102.77066,-72.614738
1.3505e-008,-102.70691,-47.210648
1.352e-008,-102.65368,-21.790316
1.3535e-008,-102.61058,3.6501803
1.355e-008,-102.577,29.114733
1.3565e-008,-102.55225,54.606277
1.358e-008,-102.53548,80.127441
1.3595e-008,-102.52573,105.67972
1.361e-008,-102.52199,131.26411
1.3625e-008,-102.52309,156.87956
1.364e-008,-102.52787,-177.47495
1.3655e-008,-102.53517,-151.80249
1.367e-008,-102.54378,-126.10719
1.3685e-008,-102.5526,-100.39443
1.37e-008,-102.5606,-74.670929
1.3715e-008,-102.5669,-48.944714
1.373e-008,-102.57078,-23.224451
1.3745e-008,-102.57166,2.4802241
1.376e-008,-102.56931,28.159369
1.3775e-008,-102.56361,53.802437
1.379e-008,-102.55472,79.399445
1.3805e-008,-102.54302,104.94038
1.382e-008,-102.52914,130.41609
1.3835e-008,-102.51382,155.81807
1.385e-008,-102.49802,-178.86099
1.3865e-008,-102.48274,-153.62764
1.388e-008,-102.46917,-128.48672
1.3895e-008,-102.45841,-103.44276
1.391e-008,-102.45164,-78.498207
1.3925e-008,-102.45006,-53.655544
1.394e-008,-102.45475,-28.915752
1.3955e-008,-102.46674,-4.2794247
1.397e-008,-102.48701,20.253721
1.3985e-008,-102.51634,44.68404
1.4e-008,-102.55553,69.012314
1.4015e-008,-102.60515,93.239655
1.403e-008,-102.66566,117.36681
1.4045e-008,-102.73738,141.39474
1.406e-008,-102.82046,165.32396
1.4075e-008,-102.91486,-170.84492
1.409e-008,-103.02039,-147.11191
1.4105e-008,-103.13662,-123.47679
1.412e-008,-103.26293,-99.940498
1.4135e-008,-103.39843,-76.503304
1.415e-008,-103.54199,-53.166065
1.4165e-008,-103.6922,-29.929289
1.418e-008,-103.84732,-6.793746
1.4195e-008,-104.00534,16.240879
1.421e-008,-104.16393,39.175621
1.4225e-008,-104.32049,62.012512
1.424e-008,-104.47207,84.755432
1.4255e-008,-104.61557,107.4104
1.427e-008,-104.74773,129.98593
1.4285e-008,-104.86524,152.49348
1.43e-008,-104.96485,174.94707
1.4315e-008,-105.04356,-162.63551
1.433e-008,-105.09879,-140.23457
1.4345e-008,-105.12843,-117.828
1.436e-008,-105.13097,-95.392319
1.4375e-008,-105.10577,-72.903862
1.439e-008,-105.05278,-50.339806
1.4405e-008,-104.97288,-27.679255
1.442e-008,-104.86746,-4.9040384
1.4435e-008,-104.73862,18.000668
1.445e-008,-104.58888,41.045464
1.4465e-008,-104.42103,64.237175
1.448e-008,-104.23817,87.579353
1.4495e-008,-104.04337,111.07182
1.451e-008,-103.83982,134.7117
1.4525e-008,-103.63058,158.4942
1.454e-008,-103.41859,-177.58743
1.4555e-008,-103.2067,-153.54027
1.457e-008,-102.99753,-129.37236
1.4585e-008,-102.79355,-105.09189
1.46e-008,-102.59711,-80.705826
1.4615e-008,-102.41029,-56.221371
1.463e-008,-102.23513,-31.644365
1.4645e-008,-102.07339,-6.9799829
1.466e-008,-101.92674,17.768085
1.4675e-008,-101.79671,42.597034
1.469e-008,-101.68468,67.505791
1.4705e-008,-101.59183,92.494125
1.472e-008,-101.51932,117.56331
1.4735e-008,-101.46802,142.71602
1.475e-008,-101.43881,167.95609
1.4765e-008,-101.43226,-166.71095
1.478e-008,-101.44889,-141.27832
1.4795e-008,-101.48889,-115.73792
1.481e-008,-101.55232,-90.079903
1.4825e-008,-101.63889,-64.29332
1.484e-008,-101.74811,-38.365803
1.4855e-008,-101.87888,-12.283606
1.487e-008,-102.02985,13.967822
1.4885e-008,-102.19895,40.403946
1.49e-008,-102.38358,67.039322
1.4915e-008,-102.5803,93.888481
1.493e-008,-102.78496,120.96321
1.4945e-008,-102.99249,148.27214
1.496e-008,-103.19707,175.81711
1.4975e-008,-103.39223,-156.407
1.499e-008,-103.57114,-128.41551
1.5005e-008,-103.72698,-100.23529
1.502e-008,-103.85368,-71.905716
1.5035e-008,-103.9463,-43.476368
1.505e-008,-104.00182,-15.006766
1.5065e-008,-104.01941,13.440184
1.508e-008,-104.00063,41.801159
1.5095e-008,-103.94922,70.018639
1.511e-008,-103.8707,98.043571
1.5125e-008,-103.77171,125.8392
1.514e-008,-103.65953,153.37991
1.5155e-008,-103.54139,-179.34779
1.517e-008,-103.42418,-152.3484
1.5185e-008,-103.31415,-125.61826
1.52e-008,-103.2168,-99.149101
1.5215e-008,-103.13681,-72.928291
1.523e-008,-103.07816,-46.941921
1.5245e-008,-103.0442,-21.174704
1.526e-008,-103.03769,4.3879075
1.5275e-008,-103.061,29.76058
1.529e-008,-103.11613,54.956383
1.5305e-008,-103.20486,79.987595
1.532e-008,-103.32883,104.86455
1.5335e-008,-103.48954,129.59688
1.535e-008,-103.68855,154.19185
1.5365e-008,-103.92742,178.65598
1.538e-008,-104.20787,-157.00659
1.5395e-008,-104.53177,-132.79306
1.541e-008,-104.9013,-108.70256
1.5425e-008,-105.31893,-84.736786
1.544e-008,-105.78754,-60.900215
1.5455e-008,-106.31066,-37.199974
1.547e-008,-106.8924,-13.648672
1.5485e-008,-107.5378,9.7362595
1.55e-008,-108.25293,32.929184
1.5515e-008,-109.0453,55.893036
1.553e-008,-109.92411,78.574417
1.5545e-008,-110.9005,100.89526
1.556e-008,-111.98837,122.74023
1.5575e-008,-113.2039,143.931
1.559e-008,-114.56452,164.18979
1.5605e-008,-116.08437,-176.92757
1.562e-008,-117.758,-160.13939
1.5635e-008,-119.51572,-146.53456
1.565e-008,-121.12307,-137.35857
1.5665e-008,-122.09751,-132.59497
1.568e-008,-122.01389,-128.8893
1.5695e-008,-121.06141,-121.76466
1.571e-008,-119.7708,-109.85314
1.5725e-008,-118.48759,-94.12001
1.574e-008,-117.33819,-75.793259
1.5755e-008,-116.34748,-55.747646
1.577e-008,-115.50703,-34.529427
1.5785e-008,-114.79879,-12.480498
1.58e-008,-114.20512,10.187793
1.5815e-008,-113.7104,33.339211
1.583e-008,-113.30145,56.883568
1.5845e-008,-112.96715,80.761887
1.586e-008,-112.69813,104.93438
1.5875e-008,-112.48627,129.37308
1.589e-008,-112.3246,154.06042
1.5905e-008,-112.20679,178.98323
1.592e-008,-112.12698,-155.86659
1.5935e-008,-112.07977,-130.49638
1.595e-008,-112.06007,-104.91215
1.5965e-008,-112.06284,-79.119614
1.598e-008,-112.08325,-53.126335
1.5995e-008,-112.11663,-26.941406
1.601e-008,-112.15858,-0.57725042
1.6025e-008,-112.20474,25.951601
1.604e-008,-112.25154,52.627789
1.6055e-008,-112.29549,79.429703
1.607e-008,-112.33396,106.33375
1.6085e-008,-112.3648,133.31438
1.61e-008,-112.38682,160.34505
1.6115e-008,-112.39939,-172.60001
1.613e-008,-112.4027,-145.5464
1.6145e-008,-112.39754,-118.51724
1.616e-008,-112.3852,-91.532089
1.6175e-008,-112.36726,-64.607574
1.619e-008,-112.34555,-37.757458
1.6205e-008,-112.32189,-10.990756
1.622e-008,-112.29809,15.686163
1.6235e-008,-112.27583,42.269409
1.625e-008,-112.25643,68.757164
1.6265e-008,-112.24106,95.150085
1.628e-008,-112.23052,121.44904
1.6295e-008,-112.2252,147.65686
1.631e-008,-112.2254,173.77477
1.6325e-008,-112.23099,-160.19312
1.634e-008,-112.2416,-134.24712
1.6355e-008,-112.25672,-108.3836
1.637e-008,-112.2757,-82.602776
1.6385e-008,-112.29773,-56.904301
1.64e-008,-112.32177,-31.287266
1.6415e-008,-112.34709,-5.7531714
1.643e-008,-112.37267,19.696863
1.6445e-008,-112.39762,45.062347
1.646e-008,-112.42136,70.341743
1.6475e-008,-112.44293,95.53521
1.649e-008,-112.46194,120.64196
1.6505e-008,-112.47832,145.66292
1.652e-008,-112.49158,170.59926
1.6535e-008,-112.50211,-164.54568
1.655e-008,-112.50999,-139.76807
1.6565e-008,-112.51585,-115.06262
1.658e-008,-112.5205,-90.422798
1.6595e-008,-112.52486,-65.841599
1.661e-008,-112.53011,-41.308746
1.6625e-008,-112.53764,-16.815155
1.664e-008,-112.54901,7.6500802
1.6655e-008,-112.56596,32.098934
1.667e-008,-112.59035,56.542446
1.6685e-008,-112.62446,80.995071
1.67e-008,-112.66982,105.47044
1.6715e-008,-112.72917,129.98082
1.673e-008,-112.80435,154.5412
1.6745e-008,-112.89787,179.16765
1.676e-008,-113.01194,-156.12506
1.6775e-008,-113.14861,-131.31792
1.679e-008,-113.31004,-106.39191
1.6805e-008,-113.49859,-81.326424
1.682e-008,-113.71585,-56.096672
1.6835e-008,-113.96356,-30.677774
1.685e-008,-114.24306,-5.035953
1.6865e-008,-114.55489,20.865313
1.688e-008,-114.89891,47.067089
1.6895e-008,-115.27386,73.618591
1.691e-008,-115.67669,100.57559
1.6925e-008,-116.10191,127.99801
1.694e-008,-116.54092,155.95027
1.6955e-008,-116.98071,-175.50986
1.697e-008,-117.40331,-146.33357
1.6985e-008,-117.78594,-116.51001
1.7e-008,-118.1021,-86.077217
1.7015e-008,-118.32504,-55.141815
1.703e-008,-118.43291,-23.884966
1.7045e-008,-118.41542,7.4593616
1.706e-008,-118.27586,38.642551
1.7075e-008,-118.03104,69.44828
1.709e-008,-117.70608,99.729309
1.7105e-008,-117.32888,129.40991
1.712e-008,-116.92553,158.47672
1.7135e-008,-116.51723,-173.04041
1.715e-008,-116.12058,-145.08784
1.7165e-008,-115.74718,-117.60403
1.718e-008,-115.40514,-90.526299
1.7195e-008,-115.09943,-63.796227
1.721e-008,-114.83343,-37.362038
1.7225e-008,-114.6087,-11.178882
1.724e-008,-114.42616,14.791994
1.7255e-008,-114.28587,40.582531
1.727e-008,-114.18758,66.221352
1.7285e-008,-114.13062,91.731201
1.73e-008,-114.11436,117.13238
1.7315e-008,-114.13779,142.44217
1.733e-008,-114.19994,167.67505
1.7345e-008,-114.2998,-167.15631
1.736e-008,-114.43608,-142.04045
1.7375e-008,-114.6076,-116.96736
1.739e-008,-114.81292,-91.928627
1.7405e-008,-115.05037,-66.915504
1.742e-008,-115.31818,-41.921349
1.7435e-008,-115.61439,-16.937672
1.745e-008,-115.93656,8.0408201
1.7465e-008,-116.28186,33.022324
1.748e-008,-116.64719,58.012466
1.7495e-008,-117.02866,83.018433
1.751e-008,-117.42197,108.04739
1.7525e-008,-117.8221,133.10565
1.754e-008,-118.22314,158.20215
1.7555e-008,-118.61855,-176.65683
1.757e-008,-119.0011,-151.46236
1.7585e-008,-119.36289,-126.20827
1.76e-008,-119.6953,-100.88776
1.7615e-008,-119.98987,-75.494705
1.763e-008,-120.23804,-50.026474
1.7645e-008,-120.43231,-24.48053
1.766e-008,-120.56529,1.1429764
1.7675e-008,-120.63225,26.836916
1.769e-008,-120.62953,52.599342
1.7705e-008,-120.55604,78.418877
1.772e-008,-120.41258,104.28701
1.7735e-008,-120.20255,130.19412
1.775e-008,-119.93043,156.13141
1.7765e-008,-119.60252,-177.91078
1.778e-008,-119.22578,-151.93852
1.7795e-008,-118.80724,-125.95803
1.781e-008,-118.35441,-99.971878
1.7825e-008,-117.87408,-73.984093
1.784e-008,-117.37255,-47.995399
1.7855e-008,-116.85571,-22.007963
1.787e-008,-116.32849,3.9782403
1.7885e-008,-115.79521,29.960424
1.79e-008,-115.25956,55.93856
1.7915e-008,-114.72469,81.911179
1.793e-008,-114.19307,107.87855
1.7945e-008,-113.66706,133.83714
1.796e-008,-113.14822,159.78767
1.7975e-008,-112.63815,-174.27254
1.799e-008,-112.13798,-148.34367
1.8005e-008,-111.64877,-122.42793
1.802e-008,-111.17128,-96.525658
1.8035e-008,-110.70617,-70.637787
1.805e-008,-110.25405,-44.765083
1.8065e-008,-109.81523,-18.907969
1.808e-008,-109.39017,6.9340754
1.8095e-008,-108.97901,32.760036
1.811e-008,-108.58196,58.570507
1.8125e-008,-108.19903,84.365654
1.814e-008,-107.83031,110.14552
1.8155e-008,-107.47564,135.91086
1.817e-008,-107.135,161.66167
1.8185e-008,-106.80809,-172.60193
1.82e-008,-106.49475,-146.88007
1.8215e-008,-106.1946,-121.17257
1.823e-008,-105.90734,-95.480316
1.8245e-008,-105.63251,-69.80397
1.826e-008,-105.36968,-44.144939
1.8275e-008,-105.1184,-18.504906
1.829e-008,-104.87813,7.1137486
1.8305e-008,-104.64838,32.708668
1.832e-008,-104.4286,58.275791
1.8335e-008,-104.21825,83.811699
1.835e-008,-104.01682,109.31157
1.8365e-008,-103.8238,134.77054
1.838e-008,-103.6387,160.1833
1.8395e-008,-103.46107,-174.45694
1.841e-008,-103.29047,-149.15643
1.8425e-008,-103.12653,-123.92193
1.844e-008,-102.96883,-98.76078
1.8455e-008,-102.8171,-73.68029
1.847e-008,-102.67094,-48.688087
1.8485e-008,-102.53013,-23.791168
1.85e-008,-102.39431,1.0027792
1.8515e-008,-102.26318,25.68718
1.853e-008,-102.13634,50.255196
1.8545e-008,-102.01344,74.700676
1.856e-008,-101.89396,99.018723
1.8575e-008,-101.77742,123.20455
1.859e-008,-101.66315,147.25485
1.8605e-008,-101.55044,171.16699
1.862e-008,-101.4385,-165.05965
1.8635e-008,-101.32639,-141.42465
1.865e-008,-101.21317,-117.92598
1.8665e-008,-101.09782,-94.559555
1.868e-008,-100.9793,-71.319412
1.8695e-008,-100.85661,-48.197853
1.871e-008,-100.72881,-25.184975
1.8725e-008,-100.59509,-2.2690122
1.874e-008,-100.45479,20.563272
1.8755e-008,-100.30751,43.326641
1.877e-008,-100.15307,66.037094
1.8785e-008,-99.991615,88.711365
1.88e-008,-99.82357,111.36602
1.8815e-008,-99.649643,134.01778
1.883e-008,-99.470871,156.68291
1.8845e-008,-99.288498,179.3764
1.886e-008,-99.103966,-157.88812
1.8875e-008,-98.918922,-135.09821
1.889e-008,-98.735062,-112.24316
1.8905e-008,-98.554169,-89.313835
1.892e-008,-98.377998,-66.302635
1.8935e-008,-98.208305,-43.20348
1.895e-008,-98.046738,-20.011574
1.8965e-008,-97.894852,3.276763
1.898e-008,-97.754089,26.664389
1.8995e-008,-97.625771,50.153107
1.901e-008,-97.511047,73.744545
1.9025e-008,-97.41095,97.439522
1.904e-008,-97.326347,121.23888
1.9055e-008,-97.257973,145.14305
1.907e-008,-97.206413,169.15254
1.9085e-008,-97.172104,-166.7323
1.91e-008,-97.155365,-142.51089
1.9115e-008,-97.156349,-118.18278
1.913e-008,-97.175125,-93.747345
1.9145e-008,-97.211548,-69.203979
1.916e-008,-97.265427,-44.552185
1.9175e-008,-97.336388,-19.791267
1.919e-008,-97.423935,5.0789003
1.9205e-008,-97.527466,30.058546
1.922e-008,-97.646233,55.147259
1.9235e-008,-97.779396,80.34404
1.925e-008,-97.926018,105.64724
1.9265e-008,-98.085068,131.05421
1.928e-008,-98.255447,156.56125
1.9295e-008,-98.436104,-177.83678
1.931e-008,-98.625946,-152.1463
1.9325e-008,-98.823982,-126.37541
1.934e-008,-99.029335,-100.53371
1.9355e-008,-99.241333,-74.632408
1.937e-008,-99.459572,-48.684303
1.9385e-008,-99.68396,-22.703337
1.94e-008,-99.914749,3.2954521
1.9415e-008,-100.15269,29.296469
1.943e-008,-100.39893,55.283615
1.9445e-008,-100.6552,81.24115
1.946e-008,-100.92371,107.15353
1.9475e-008,-101.20721,133.00639
1.949e-008,-101.50906,158.7861
1.9505e-008,-101.83317,-175.51921
1.952e-008,-102.18412,-149.92064
1.9535e-008,-102.56714,-124.42796
1.955e-008,-102.9884,-99.049316
1.9565e-008,-103.45502,-73.792862
1.958e-008,-103.97549,-48.666084
1.9595e-008,-104.56008,-23.676998
1.961e-008,-105.22149,1.1648033
1.9625e-008,-105.97593,25.846586
1.964e-008,-106.84483,50.349747
1.9655e-008,-107.85756,74.644554
1.967e-008,-109.05647,98.681618
1.9685e-008,-110.5062,122.36887
1.97e-008,-112.31296,145.52304
1.9715e-008,-114.67076,167.71526
1.973e-008,-117.9906,-172.3071
1.9745e-008,-123.35005,-160.15453
1.976e-008,-130.67917,157.46184
1.9775e-008,-123.01384,117.88568
1.979e-008,-117.60737,130.24979
1.9805e-008,-114.19198,149.94118
1.982e-008,-111.72245,171.63161
1.9835e-008,-109.79787,-165.88907
1.985e-008,-108.22839,-143.03819
1.9865e-008,-106.90987,-119.9959
1.988e-008,-105.77921,-96.851753
1.9895e-008,-104.79528,-73.654686
1.991e-008,-103.92981,-50.432762
1.9925e-008,-103.16249,-27.203436
1.994e-008,-102.47829,-3.9772153
1.9955e-008,-101.86575,19.239225
1.997e-008,-101.31592,42.441818
1.9985e-008,-100.82167,65.628029
2e-008,-100.3773,88.796478
END

