!CSV A.01.01
!Keysight Technologies,N5227B,US58420762,A.13.80.08
!Date: Monday, November 20, 2023 16:54:55
!Source: Standard

BEGIN CH1_DATA
Time(s),S21(DB),S21(DEG)
5e-009,-132.43892,85.743385
5.015e-009,-131.21497,73.48661
5.03e-009,-127.93446,75.537476
5.045e-009,-124.86738,88.980728
5.06e-009,-122.35825,107.52722
5.075e-009,-120.30943,128.41977
5.09e-009,-118.60922,150.49507
5.105e-009,-117.18022,173.20905
5.12e-009,-115.96821,-163.71188
5.135e-009,-114.93537,-140.42842
5.15e-009,-114.05553,-117.03468
5.165e-009,-113.30844,-93.591743
5.18e-009,-112.67954,-70.14492
5.195e-009,-112.15735,-46.721836
5.21e-009,-111.73308,-23.348709
5.225e-009,-111.39935,-0.046671767
5.24e-009,-111.1507,23.16539
5.255e-009,-110.98212,46.268425
5.27e-009,-110.88927,69.241821
5.285e-009,-110.86835,92.067123
5.3e-009,-110.91563,114.72077
5.315e-009,-111.02742,137.18214
5.33e-009,-111.19929,159.42453
5.345e-009,-111.42633,-178.57651
5.36e-009,-111.70272,-156.84431
5.375e-009,-112.02103,-135.40141
5.39e-009,-112.3724,-114.26414
5.405e-009,-112.74629,-93.434349
5.42e-009,-113.13072,-72.899254
5.435e-009,-113.51254,-52.621403
5.45e-009,-113.87885,-32.535847
5.465e-009,-114.21858,-12.543904
5.48e-009,-114.52347,7.4803829
5.495e-009,-114.79077,27.682707
5.51e-009,-115.02226,48.216995
5.525e-009,-115.22443,69.230019
5.54e-009,-115.40665,90.852783
5.555e-009,-115.57913,113.1995
5.57e-009,-115.74928,136.36214
5.585e-009,-115.92155,160.42024
5.6e-009,-116.09372,-174.56592
5.615e-009,-116.25652,-148.55484
5.63e-009,-116.39242,-121.53749
5.645e-009,-116.4763,-93.560974
5.66e-009,-116.47987,-64.749596
5.675e-009,-116.37759,-35.317589
5.69e-009,-116.15439,-5.5579982
5.705e-009,-115.81214,24.207151
5.72e-009,-115.36866,53.691795
5.735e-009,-114.85375,82.681908
5.75e-009,-114.30105,111.06402
5.765e-009,-113.7414,138.80038
5.78e-009,-113.20053,165.90758
5.795e-009,-112.69733,-167.56909
5.81e-009,-112.24585,-141.57697
5.825e-009,-111.85484,-116.0639
5.84e-009,-111.53035,-90.985764
5.855e-009,-111.27607,-66.308342
5.87e-009,-111.09415,-42.009567
5.885e-009,-110.9855,-18.078661
5.9e-009,-110.9501,5.4837842
5.915e-009,-110.98706,28.666416
5.93e-009,-111.09454,51.446419
5.945e-009,-111.26927,73.789986
5.96e-009,-111.50588,95.652702
5.975e-009,-111.79638,116.98094
5.99e-009,-112.12907,137.72063
6.005e-009,-112.48717,157.82091
6.02e-009,-112.84824,177.25299
6.035e-009,-113.18475,-163.96915
6.05e-009,-113.46659,-145.76332
6.065e-009,-113.66532,-127.96413
6.08e-009,-113.76225,-110.3271
6.095e-009,-113.75275,-92.565002
6.11e-009,-113.64963,-74.399597
6.125e-009,-113.47758,-55.612606
6.14e-009,-113.26783,-36.062592
6.155e-009,-113.05078,-15.687422
6.17e-009,-112.85316,5.5256953
6.185e-009,-112.69516,27.564234
6.2e-009,-112.59158,50.405811
6.215e-009,-112.55137,74.035973
6.23e-009,-112.57935,98.459129
6.245e-009,-112.67498,123.69571
6.26e-009,-112.83298,149.7905
6.275e-009,-113.04141,176.80078
6.29e-009,-113.28085,-155.20732
6.305e-009,-113.52153,-126.19153
6.32e-009,-113.72462,-96.161278
6.335e-009,-113.84496,-65.232506
6.35e-009,-113.84112,-33.651939
6.365e-009,-113.6875,-1.7958632
6.38e-009,-113.38509,29.919418
6.395e-009,-112.96034,61.126247
6.41e-009,-112.45554,91.591705
6.425e-009,-111.91616,121.21743
6.44e-009,-111.38171,150.01331
6.455e-009,-110.8825,178.04521
6.47e-009,-110.43972,-154.59401
6.485e-009,-110.06809,-127.81395
6.5e-009,-109.7773,-101.53301
6.515e-009,-109.57442,-75.68399
6.53e-009,-109.46439,-50.213322
6.545e-009,-109.45219,-25.085999
6.56e-009,-109.54247,-0.27594015
6.575e-009,-109.74096,24.225086
6.59e-009,-110.05428,48.412117
6.605e-009,-110.49131,72.260971
6.62e-009,-111.06293,95.724998
6.635e-009,-111.78378,118.72436
6.65e-009,-112.67176,141.12808
6.665e-009,-113.74971,162.72087
6.68e-009,-115.04404,-176.85374
6.695e-009,-116.5779,-158.2036
6.71e-009,-118.34496,-142.37654
6.725e-009,-120.22392,-131.02702
6.74e-009,-121.78284,-125.75686
6.755e-009,-122.27203,-124.84623
6.77e-009,-121.49184,-121.83461
6.785e-009,-120.13039,-112.87355
6.8e-009,-118.78376,-98.844582
6.815e-009,-117.67128,-81.577942
6.83e-009,-116.83625,-62.359047
6.845e-009,-116.27287,-41.963604
6.86e-009,-115.96964,-20.86058
6.875e-009,-115.92046,0.63436127
6.89e-009,-116.13075,22.283506
6.905e-009,-116.62033,43.859226
6.92e-009,-117.42838,65.082199
6.935e-009,-118.6231,85.514572
6.95e-009,-120.32021,104.30198
6.965e-009,-122.69672,119.4194
6.98e-009,-125.85163,125.2679
6.995e-009,-128.21025,110.59656
7.01e-009,-125.98615,92.773575
7.025e-009,-122.32255,96.30278
7.04e-009,-119.38071,110.79015
7.055e-009,-117.14069,129.64258
7.07e-009,-115.41396,150.52422
7.085e-009,-114.07157,172.50177
7.1e-009,-113.03326,-164.85657
7.115e-009,-112.24886,-141.77467
7.13e-009,-111.68817,-118.37576
7.145e-009,-111.33331,-94.729408
7.16e-009,-111.17658,-70.87339
7.175e-009,-111.21927,-46.819656
7.19e-009,-111.4715,-22.564169
7.205e-009,-111.95461,1.9279041
7.22e-009,-112.70529,26.725801
7.235e-009,-113.78569,51.975914
7.25e-009,-115.30237,77.976273
7.265e-009,-117.45212,105.44616
7.28e-009,-120.63626,136.51569
7.295e-009,-125.62735,-179.67928
7.31e-009,-128.78844,-89.921555
7.325e-009,-122.93233,-22.069853
7.34e-009,-118.44633,14.365628
7.355e-009,-115.41991,43.617752
7.37e-009,-113.22849,70.492645
7.385e-009,-111.57568,96.316101
7.4e-009,-110.30974,121.58686
7.415e-009,-109.34612,146.53156
7.43e-009,-108.6352,171.26782
7.445e-009,-108.14788,-164.13995
7.46e-009,-107.86876,-139.65411
7.475e-009,-107.79299,-115.25487
7.49e-009,-107.92503,-90.930695
7.505e-009,-108.27977,-66.682709
7.52e-009,-108.8857,-42.523792
7.535e-009,-109.79114,-18.486095
7.55e-009,-111.07941,5.3615308
7.565e-009,-112.90182,28.858253
7.58e-009,-115.5715,51.566563
7.595e-009,-119.89979,71.819145
7.61e-009,-129.21964,74.328712
7.625e-009,-126.48721,-25.420706
7.64e-009,-118.5463,-14.924197
7.655e-009,-114.46391,6.3182597
7.67e-009,-111.81949,29.582714
7.685e-009,-109.96027,53.656273
7.7e-009,-108.62482,78.220825
7.715e-009,-107.68781,103.19727
7.73e-009,-107.08553,128.60959
7.745e-009,-106.78777,154.56287
7.76e-009,-106.78589,-178.73869
7.775e-009,-107.08565,-150.93465
7.79e-009,-107.69733,-121.39039
7.805e-009,-108.6056,-88.981384
7.82e-009,-109.6711,-51.87714
7.835e-009,-110.39889,-8.2955122
7.85e-009,-109.94134,39.561466
7.865e-009,-108.15899,84.349541
7.88e-009,-105.85622,122.43305
7.895e-009,-103.62614,155.16693
7.91e-009,-101.65279,-175.50287
7.925e-009,-99.955124,-148.3338
7.94e-009,-98.510002,-122.63938
7.955e-009,-97.289452,-98.056107
7.97e-009,-96.268967,-74.40863
7.985e-009,-95.428421,-51.641121
8e-009,-94.749855,-29.786575
8.015e-009,-94.213966,-8.9533787
8.03e-009,-93.794922,10.681305
8.045e-009,-93.452217,28.889153
8.06e-009,-93.12043,45.444443
8.075e-009,-92.701561,60.254387
8.09e-009,-92.074974,73.564575
8.105e-009,-91.140137,86.102287
8.12e-009,-89.873657,98.905655
8.135e-009,-88.342789,112.86812
8.15e-009,-86.659019,128.41869
8.165e-009,-84.92382,145.56276
8.18e-009,-83.206032,164.08865
8.195e-009,-81.544312,-176.26871
8.21e-009,-79.95694,-155.75076
8.225e-009,-78.450363,-134.5531
8.24e-009,-77.024773,-112.82672
8.255e-009,-75.677315,-90.68605
8.27e-009,-74.403809,-68.217514
8.285e-009,-73.199684,-45.486649
8.3e-009,-72.060432,-22.543592
8.315e-009,-70.981773,0.57295257
8.33e-009,-69.959808,23.83283
8.345e-009,-68.990974,47.212261
8.36e-009,-68.072075,70.692322
8.375e-009,-67.200256,94.25782
8.39e-009,-66.372925,117.89645
8.405e-009,-65.587791,141.59814
8.42e-009,-64.842781,165.35463
8.435e-009,-64.136017,-170.84093
8.45e-009,-63.465828,-146.99426
8.465e-009,-62.830696,-123.11018
8.48e-009,-62.229237,-99.192673
8.495e-009,-61.660206,-75.245186
8.51e-009,-61.122463,-51.270611
8.525e-009,-60.614975,-27.271399
8.54e-009,-60.136799,-3.2496457
8.555e-009,-59.687057,20.792835
8.57e-009,-59.264965,44.854549
8.585e-009,-58.869789,68.934174
8.6e-009,-58.500858,93.030624
8.615e-009,-58.157551,117.14297
8.63e-009,-57.839298,141.27046
8.645e-009,-57.545567,165.41241
8.66e-009,-57.275871,-170.43166
8.675e-009,-57.029755,-146.26213
8.69e-009,-56.806797,-122.07938
8.705e-009,-56.606598,-97.883553
8.72e-009,-56.428795,-73.674789
8.735e-009,-56.273041,-49.453144
8.75e-009,-56.139015,-25.218567
8.765e-009,-56.026409,-0.97094798
8.78e-009,-55.934937,23.289902
8.795e-009,-55.864319,47.564232
8.81e-009,-55.814301,71.852379
8.825e-009,-55.784622,96.154732
8.84e-009,-55.775047,120.47176
8.855e-009,-55.785332,144.80399
8.87e-009,-55.815239,169.15202
8.885e-009,-55.86454,-166.48346
8.9e-009,-55.932995,-142.10172
8.915e-009,-56.020367,-117.70196
8.93e-009,-56.126415,-93.283295
8.945e-009,-56.250881,-68.844788
8.96e-009,-56.393501,-44.385448
8.975e-009,-56.553997,-19.90419
8.99e-009,-56.732063,4.6000967
9.005e-009,-56.927391,29.128588
9.02e-009,-57.139626,53.682491
9.035e-009,-57.368393,78.263054
9.05e-009,-57.613293,102.87153
9.065e-009,-57.873878,127.50917
9.08e-009,-58.149658,152.17723
9.095e-009,-58.440113,176.87688
9.11e-009,-58.744659,-158.39076
9.125e-009,-59.062668,-133.62469
9.14e-009,-59.393456,-108.8241
9.155e-009,-59.736286,-83.988335
9.17e-009,-60.090359,-59.117031
9.185e-009,-60.45483,-34.210102
9.2e-009,-60.828793,-9.2678871
9.215e-009,-61.211292,15.708867
9.23e-009,-61.601334,40.718899
9.245e-009,-61.997898,65.760384
9.26e-009,-62.399937,90.830879
9.275e-009,-62.806396,115.92727
9.29e-009,-63.216251,141.04579
9.305e-009,-63.628498,166.18198
9.32e-009,-64.042198,-168.66934
9.335e-009,-64.456482,-143.51392
9.35e-009,-64.870605,-118.35804
9.365e-009,-65.28392,-93.208481
9.38e-009,-65.695953,-68.072266
9.395e-009,-66.106384,-42.956585
9.41e-009,-66.51506,-17.868597
9.425e-009,-66.92202,7.1847835
9.44e-009,-67.327507,32.197025
9.455e-009,-67.731918,57.162163
9.47e-009,-68.135864,82.074989
9.485e-009,-68.5401,106.93113
9.5e-009,-68.945564,131.72717
9.515e-009,-69.353317,156.4608
9.53e-009,-69.764587,-178.86937
9.545e-009,-70.180687,-154.26349
9.56e-009,-70.603058,-129.72076
9.575e-009,-71.033241,-105.23931
9.59e-009,-71.472878,-80.816299
9.605e-009,-71.923683,-56.448002
9.62e-009,-72.387482,-32.129791
9.635e-009,-72.866203,-7.8562183
9.65e-009,-73.361855,16.37895
9.665e-009,-73.876579,40.582726
9.68e-009,-74.412659,64.762947
9.695e-009,-74.972511,88.928329
9.71e-009,-75.558754,113.08862
9.725e-009,-76.174194,137.25479
9.74e-009,-76.821907,161.43932
9.755e-009,-77.505257,-174.34337
9.77e-009,-78.227974,-150.07628
9.785e-009,-78.994194,-125.73899
9.8e-009,-79.808578,-101.30638
9.815e-009,-80.676353,-76.746986
9.83e-009,-81.603416,-52.02037
9.845e-009,-82.59642,-27.073484
9.86e-009,-83.66272,-1.8352591
9.875e-009,-84.810226,23.791801
9.89e-009,-86.046738,49.943508
9.905e-009,-87.37838,76.81218
9.92e-009,-88.805748,104.67121
9.935e-009,-90.315659,133.90198
9.95e-009,-91.864273,165.00009
9.965e-009,-93.34922,-161.52002
9.98e-009,-94.585693,-125.47297
9.995e-009,-95.347595,-87.611526
1.001e-008,-95.520447,-49.778858
1.0025e-008,-95.211891,-13.846256
1.004e-008,-94.648033,19.383085
1.0055e-008,-94.017754,50.064156
1.007e-008,-93.427177,78.701065
1.0085e-008,-92.9226,105.78326
1.01e-008,-92.518501,131.68558
1.0115e-008,-92.214874,156.67145
1.013e-008,-92.005608,-179.08
1.0145e-008,-91.882416,-155.44911
1.016e-008,-91.836258,-132.3571
1.0175e-008,-91.857941,-109.75359
1.019e-008,-91.93811,-87.606789
1.0205e-008,-92.067154,-65.897209
1.022e-008,-92.234978,-44.611988
1.0235e-008,-92.430824,-23.739532
1.025e-008,-92.643288,-3.2650168
1.0265e-008,-92.860504,16.834915
1.028e-008,-93.070488,36.59584
1.0295e-008,-93.261894,56.068569
1.031e-008,-93.424934,75.320152
1.0325e-008,-93.552277,94.431114
1.034e-008,-93.639885,113.49003
1.0355e-008,-93.687271,132.58658
1.037e-008,-93.697365,151.80318
1.0385e-008,-93.675797,171.20845
1.04e-008,-93.629967,-169.14604
1.0415e-008,-93.567932,-149.22719
1.043e-008,-93.497681,-129.01816
1.0445e-008,-93.426376,-108.51605
1.046e-008,-93.360092,-87.727577
1.0475e-008,-93.303688,-66.666039
1.049e-008,-93.260765,-45.348995
1.0505e-008,-93.23381,-23.795641
1.052e-008,-93.224342,-2.0251639
1.0535e-008,-93.233063,19.943693
1.055e-008,-93.26004,42.09322
1.0565e-008,-93.304779,64.407677
1.058e-008,-93.366371,86.872314
1.0595e-008,-93.443665,109.47463
1.061e-008,-93.535248,132.2029
1.0625e-008,-93.639595,155.04698
1.064e-008,-93.755142,177.99774
1.0655e-008,-93.880394,-158.95335
1.067e-008,-94.013817,-135.81407
1.0685e-008,-94.154137,-112.5916
1.07e-008,-94.300262,-89.293205
1.0715e-008,-94.45137,-65.925789
1.073e-008,-94.606918,-42.496372
1.0745e-008,-94.766731,-19.012299
1.076e-008,-94.931038,4.5190167
1.0775e-008,-95.100456,28.090092
1.079e-008,-95.276016,51.692898
1.0805e-008,-95.459259,75.319321
1.082e-008,-95.651985,98.960587
1.0835e-008,-95.856682,122.60825
1.085e-008,-96.076027,146.25291
1.0865e-008,-96.313225,169.8847
1.088e-008,-96.57193,-166.50661
1.0895e-008,-96.856201,-142.93257
1.091e-008,-97.170586,-119.40576
1.0925e-008,-97.520142,-95.940987
1.094e-008,-97.910599,-72.555702
1.0955e-008,-98.348373,-49.271275
1.097e-008,-98.840874,-26.114759
1.0985e-008,-99.396553,-3.1214261
1.1e-008,-100.02529,19.661345
1.1015e-008,-100.73898,42.167763
1.103e-008,-101.55153,64.304756
1.1045e-008,-102.47977,85.933609
1.106e-008,-103.54284,106.84482
1.1075e-008,-104.76105,126.7057
1.109e-008,-106.14819,144.98035
1.1105e-008,-107.68966,160.80106
1.112e-008,-109.27766,172.89284
1.1135e-008,-110.58536,-179.93663
1.115e-008,-111.04836,-176.70059
1.1165e-008,-110.39246,-172.81717
1.118e-008,-109.03394,-164.39949
1.1195e-008,-107.50436,-151.2538
1.121e-008,-106.06649,-134.71057
1.1225e-008,-104.79736,-115.95275
1.124e-008,-103.70277,-95.75428
1.1255e-008,-102.7675,-74.589798
1.127e-008,-101.97315,-52.754353
1.1285e-008,-101.30267,-30.434793
1.13e-008,-100.74206,-7.7539115
1.1315e-008,-100.27982,15.206641
1.133e-008,-99.906845,38.389984
1.1345e-008,-99.615791,61.757416
1.136e-008,-99.400902,85.281799
1.1375e-008,-99.257469,108.94524
1.139e-008,-99.181877,132.73586
1.1405e-008,-99.171181,156.64746
1.142e-008,-99.22319,-179.32184
1.1435e-008,-99.336098,-155.16919
1.145e-008,-99.508636,-130.88834
1.1465e-008,-99.739777,-106.46895
1.148e-008,-100.02875,-81.895111
1.1495e-008,-100.37496,-57.146412
1.151e-008,-100.77773,-32.196217
1.1525e-008,-101.23613,-7.0102205
1.154e-008,-101.74874,18.454245
1.1555e-008,-102.3132,44.249893
1.157e-008,-102.92538,70.440048
1.1585e-008,-103.57874,97.100639
1.16e-008,-104.26293,124.31573
1.1615e-008,-104.96192,152.17393
1.163e-008,-105.65279,-179.24831
1.1645e-008,-106.30424,-149.90752
1.166e-008,-106.87814,-119.83025
1.1675e-008,-107.33398,-89.14637
1.169e-008,-107.63807,-58.104836
1.1705e-008,-107.77418,-27.042953
1.172e-008,-107.74871,3.6881037
1.1735e-008,-107.58842,33.80368
1.175e-008,-107.33041,63.134499
1.1765e-008,-107.01254,91.624641
1.178e-008,-106.6668,119.30219
1.1795e-008,-106.31729,146.24118
1.181e-008,-105.98034,172.53413
1.1825e-008,-105.66645,-161.72408
1.184e-008,-105.3818,-136.44705
1.1855e-008,-105.12965,-111.55788
1.187e-008,-104.91156,-86.991837
1.1885e-008,-104.72793,-62.693249
1.19e-008,-104.57861,-38.616261
1.1915e-008,-104.4632,-14.722466
1.193e-008,-104.38116,9.0192842
1.1945e-008,-104.33221,32.633762
1.196e-008,-104.31598,56.142006
1.1975e-008,-104.3325,79.557571
1.199e-008,-104.38184,102.89108
1.2005e-008,-104.46438,126.14794
1.202e-008,-104.58056,149.32874
1.2035e-008,-104.73113,172.42999
1.205e-008,-104.91678,-164.55809
1.2065e-008,-105.1385,-141.65045
1.208e-008,-105.39719,-118.86771
1.2095e-008,-105.69363,-96.238693
1.211e-008,-106.02827,-73.799835
1.2125e-008,-106.40128,-51.598408
1.214e-008,-106.81164,-29.691872
1.2155e-008,-107.25697,-8.1514797
1.217e-008,-107.7323,12.938849
1.2185e-008,-108.22889,33.481907
1.22e-008,-108.73259,53.373604
1.2215e-008,-109.22145,72.516655
1.223e-008,-109.66476,90.843781
1.2245e-008,-110.02302,108.35585
1.226e-008,-110.25303,125.16588
1.2275e-008,-110.31736,141.52058
1.229e-008,-110.19656,157.7747
1.2305e-008,-109.89709,174.31154
1.232e-008,-109.44853,-168.55717
1.2335e-008,-108.89307,-150.64571
1.235e-008,-108.27387,-131.89648
1.2365e-008,-107.62705,-112.34592
1.238e-008,-106.98019,-92.07856
1.2395e-008,-106.35181,-71.19944
1.241e-008,-105.75391,-49.81118
1.2425e-008,-105.19402,-28.007607
1.244e-008,-104.67608,-5.8708096
1.2455e-008,-104.20239,16.53278
1.247e-008,-103.7737,39.143044
1.2485e-008,-103.38999,61.912735
1.25e-008,-103.051,84.800949
1.2515e-008,-102.75603,107.7731
1.253e-008,-102.50436,130.7999
1.2545e-008,-102.29497,153.85475
1.256e-008,-102.12698,176.91498
1.2575e-008,-101.99954,-160.0406
1.259e-008,-101.91149,-137.03178
1.2605e-008,-101.86172,-114.07542
1.262e-008,-101.8491,-91.190575
1.2635e-008,-101.87207,-68.392418
1.265e-008,-101.92918,-45.698383
1.2665e-008,-102.01836,-23.123903
1.268e-008,-102.1374,-0.68394876
1.2695e-008,-102.28362,21.606277
1.271e-008,-102.45376,43.734356
1.2725e-008,-102.64407,65.689148
1.274e-008,-102.8501,87.462143
1.2755e-008,-103.06689,109.05256
1.277e-008,-103.28889,130.46028
1.2785e-008,-103.51006,151.69717
1.28e-008,-103.7246,172.78188
1.2815e-008,-103.92642,-166.25732
1.283e-008,-104.11037,-145.38121
1.2845e-008,-104.27236,-124.54413
1.286e-008,-104.40938,-103.69269
1.2875e-008,-104.52067,-82.769882
1.289e-008,-104.60665,-61.719864
1.2905e-008,-104.66955,-40.490585
1.292e-008,-104.71267,-19.036158
1.2935e-008,-104.74023,2.6809626
1.295e-008,-104.75658,24.68722
1.2965e-008,-104.76595,47.001492
1.298e-008,-104.77204,69.635292
1.2995e-008,-104.77786,92.590263
1.301e-008,-104.78545,115.8646
1.3025e-008,-104.79594,139.44997
1.304e-008,-104.80951,163.33333
1.3055e-008,-104.82546,-172.50122
1.307e-008,-104.84229,-148.07401
1.3085e-008,-104.85809,-123.41021
1.31e-008,-104.87045,-98.537979
1.3115e-008,-104.87684,-73.490379
1.313e-008,-104.87468,-48.30341
1.3145e-008,-104.8618,-23.016716
1.316e-008,-104.83649,2.3278785
1.3175e-008,-104.79758,27.68873
1.319e-008,-104.74464,53.023357
1.3205e-008,-104.6778,78.292854
1.322e-008,-104.59783,103.4621
1.3235e-008,-104.50602,128.49939
1.325e-008,-104.40373,153.3801
1.3265e-008,-104.29261,178.08556
1.328e-008,-104.17418,-157.39767
1.3295e-008,-104.04987,-133.07515
1.331e-008,-103.92076,-108.94877
1.3325e-008,-103.78777,-85.013443
1.334e-008,-103.65154,-61.260048
1.3355e-008,-103.51247,-37.674755
1.337e-008,-103.37083,-14.240829
1.3385e-008,-103.22686,9.0625744
1.34e-008,-103.08076,32.258018
1.3415e-008,-102.93303,55.369427
1.343e-008,-102.784,78.422722
1.3445e-008,-102.63454,101.44325
1.346e-008,-102.48564,124.45624
1.3475e-008,-102.33843,147.48569
1.349e-008,-102.19435,170.55405
1.3505e-008,-102.05492,-166.31738
1.352e-008,-101.9217,-143.11066
1.3535e-008,-101.79629,-119.80954
1.355e-008,-101.68027,-96.399117
1.3565e-008,-101.57503,-72.868408
1.358e-008,-101.48182,-49.207165
1.3595e-008,-101.40166,-25.407206
1.361e-008,-101.3353,-1.4617699
1.3625e-008,-101.28323,22.633724
1.364e-008,-101.24551,46.883835
1.3655e-008,-101.22205,71.290833
1.367e-008,-101.21221,95.8564
1.3685e-008,-101.21522,120.58031
1.37e-008,-101.2298,145.46165
1.3715e-008,-101.25446,170.49757
1.373e-008,-101.28739,-164.31683
1.3745e-008,-101.32652,-138.98813
1.376e-008,-101.3696,-113.52518
1.3775e-008,-101.41422,-87.939697
1.379e-008,-101.45808,-62.245384
1.3805e-008,-101.49875,-36.459652
1.382e-008,-101.53408,-10.601175
1.3835e-008,-101.56222,15.308715
1.385e-008,-101.58161,41.247498
1.3865e-008,-101.59106,67.192024
1.388e-008,-101.58994,93.118492
1.3895e-008,-101.57795,119.0056
1.391e-008,-101.55531,144.83234
1.3925e-008,-101.52248,170.58112
1.394e-008,-101.48016,-163.76283
1.3955e-008,-101.4294,-138.21078
1.397e-008,-101.37107,-112.76971
1.3985e-008,-101.30628,-87.443932
1.4e-008,-101.23593,-62.232868
1.4015e-008,-101.16087,-37.133469
1.403e-008,-101.08175,-12.139087
1.4045e-008,-100.99911,12.759382
1.406e-008,-100.91335,37.573879
1.4075e-008,-100.8247,62.317772
1.409e-008,-100.73321,87.006119
1.4105e-008,-100.63905,111.65542
1.412e-008,-100.5421,136.28227
1.4135e-008,-100.44231,160.90385
1.415e-008,-100.33955,-174.46294
1.4165e-008,-100.23369,-149.80228
1.418e-008,-100.1246,-125.09859
1.4195e-008,-100.01203,-100.33868
1.421e-008,-99.895813,-75.51001
1.4225e-008,-99.775764,-50.603405
1.424e-008,-99.651611,-25.610954
1.4255e-008,-99.523064,-0.52746481
1.427e-008,-99.3899,24.649187
1.4285e-008,-99.251877,49.91906
1.43e-008,-99.10881,75.279228
1.4315e-008,-98.960556,100.72459
1.433e-008,-98.807083,126.24792
1.4345e-008,-98.648552,151.83922
1.436e-008,-98.485283,177.48785
1.4375e-008,-98.317795,-156.81877
1.439e-008,-98.146782,-131.09361
1.4405e-008,-97.973198,-105.34997
1.442e-008,-97.798233,-79.601257
1.4435e-008,-97.623215,-53.860088
1.445e-008,-97.449669,-28.138227
1.4465e-008,-97.279243,-2.4466026
1.448e-008,-97.113693,23.205173
1.4495e-008,-96.954758,48.809441
1.451e-008,-96.804253,74.3591
1.4525e-008,-96.663918,99.848862
1.454e-008,-96.535469,125.27451
1.4555e-008,-96.420547,150.63344
1.457e-008,-96.32074,175.92348
1.4585e-008,-96.237411,-158.85635
1.46e-008,-96.171967,-133.70639
1.4615e-008,-96.125587,-108.62633
1.463e-008,-96.099419,-83.615402
1.4645e-008,-96.094437,-58.672657
1.466e-008,-96.111595,-33.796822
1.4675e-008,-96.151711,-8.9861917
1.469e-008,-96.215515,15.760554
1.4705e-008,-96.303696,40.445103
1.472e-008,-96.416847,65.06916
1.4735e-008,-96.555542,89.634277
1.475e-008,-96.720245,114.14185
1.4765e-008,-96.911446,138.59369
1.478e-008,-97.129509,162.991
1.4795e-008,-97.374924,-172.66478
1.481e-008,-97.647964,-148.37242
1.4825e-008,-97.94899,-124.13033
1.484e-008,-98.278381,-99.937637
1.4855e-008,-98.636482,-75.792542
1.487e-008,-99.02356,-51.693722
1.4885e-008,-99.440086,-27.639328
1.49e-008,-99.886345,-3.6276889
1.4915e-008,-100.36282,20.343611
1.493e-008,-100.8699,44.277302
1.4945e-008,-101.40822,68.177086
1.496e-008,-101.97845,92.046768
1.4975e-008,-102.58141,115.8916
1.499e-008,-103.2181,139.71892
1.5005e-008,-103.88984,163.53619
1.502e-008,-104.59825,-172.64555
1.5035e-008,-105.34551,-148.81293
1.505e-008,-106.13427,-124.9486
1.5065e-008,-106.96813,-101.03132
1.508e-008,-107.85159,-77.032272
1.5095e-008,-108.79079,-52.914791
1.511e-008,-109.79338,-28.627462
1.5125e-008,-110.86983,-4.1035337
1.514e-008,-112.03333,20.75647
1.5155e-008,-113.30138,46.095779
1.517e-008,-114.69639,72.134605
1.5185e-008,-116.24513,99.228195
1.52e-008,-117.97385,127.97546
1.5215e-008,-119.8858,159.41043
1.523e-008,-121.88168,-164.76314
1.5245e-008,-123.55577,-122.62894
1.526e-008,-124.09888,-75.364906
1.5275e-008,-123.18438,-29.740133
1.529e-008,-121.52022,9.6178474
1.5305e-008,-119.77045,43.524189
1.532e-008,-118.17255,73.973808
1.5335e-008,-116.76445,102.34748
1.535e-008,-115.52764,129.44838
1.5365e-008,-114.43474,155.7355
1.538e-008,-113.46058,-178.5166
1.5395e-008,-112.58508,-153.13831
1.541e-008,-111.79255,-128.02312
1.5425e-008,-111.07072,-103.09867
1.544e-008,-110.41029,-78.317314
1.5455e-008,-109.80381,-53.647038
1.547e-008,-109.24563,-29.062746
1.5485e-008,-108.7314,-4.5473928
1.55e-008,-108.25744,19.911291
1.5515e-008,-107.82104,44.323582
1.553e-008,-107.42001,68.696671
1.5545e-008,-107.05262,93.038849
1.556e-008,-106.71745,117.35574
1.5575e-008,-106.41352,141.65346
1.559e-008,-106.13977,165.9381
1.5605e-008,-105.89571,-169.78355
1.562e-008,-105.68078,-145.50478
1.5635e-008,-105.4946,-121.21806
1.565e-008,-105.33669,-96.914268
1.5665e-008,-105.20692,-72.584457
1.568e-008,-105.10505,-48.217628
1.5695e-008,-105.03076,-23.802143
1.571e-008,-104.98382,0.67579311
1.5725e-008,-104.96394,25.23053
1.574e-008,-104.97063,49.879139
1.5755e-008,-105.00327,74.64093
1.577e-008,-105.06087,99.536652
1.5785e-008,-105.14219,124.58984
1.58e-008,-105.24543,149.82541
1.5815e-008,-105.36806,175.27113
1.583e-008,-105.50673,-159.04323
1.5845e-008,-105.65683,-133.08867
1.586e-008,-105.81255,-106.8372
1.5875e-008,-105.9664,-80.265266
1.589e-008,-106.10933,-53.355705
1.5905e-008,-106.23055,-26.105354
1.592e-008,-106.31831,1.4720057
1.5935e-008,-106.36051,29.340021
1.595e-008,-106.34596,57.437778
1.5965e-008,-106.26595,85.680466
1.598e-008,-106.11561,113.96683
1.5995e-008,-105.89481,142.18892
1.601e-008,-105.60811,170.24557
1.6025e-008,-105.26381,-161.94952
1.604e-008,-104.87285,-134.45827
1.6055e-008,-104.4471,-107.3188
1.607e-008,-103.99828,-80.546478
1.6085e-008,-103.5368,-54.137974
1.61e-008,-103.0716,-28.078682
1.6115e-008,-102.60989,-2.3453546
1.613e-008,-102.15732,23.089811
1.6145e-008,-101.71808,48.255207
1.616e-008,-101.29521,73.180298
1.6175e-008,-100.89081,97.892311
1.619e-008,-100.50636,122.41663
1.6205e-008,-100.14262,146.77783
1.622e-008,-99.800026,170.99715
1.6235e-008,-99.478745,-164.90497
1.625e-008,-99.178665,-140.91057
1.6265e-008,-98.899567,-117.00201
1.628e-008,-98.641144,-93.163559
1.6295e-008,-98.402992,-69.38044
1.631e-008,-98.184761,-45.63866
1.6325e-008,-97.985977,-21.924696
1.634e-008,-97.806343,1.7747869
1.6355e-008,-97.645439,25.471933
1.637e-008,-97.502907,49.178963
1.6385e-008,-97.378456,72.90847
1.64e-008,-97.271912,96.671997
1.6415e-008,-97.18293,120.48216
1.643e-008,-97.111343,144.35007
1.6445e-008,-97.0569,168.28831
1.646e-008,-97.01944,-167.69131
1.6475e-008,-96.998665,-143.57564
1.649e-008,-96.994316,-119.35314
1.6505e-008,-97.005936,-95.011009
1.652e-008,-97.033142,-70.535881
1.6535e-008,-97.075142,-45.915066
1.655e-008,-97.131172,-21.135258
1.6565e-008,-97.200096,3.8165197
1.658e-008,-97.280502,28.953438
1.6595e-008,-97.370583,54.287525
1.661e-008,-97.468231,79.830231
1.6625e-008,-97.570732,105.59126
1.664e-008,-97.67511,131.57796
1.6655e-008,-97.777679,157.79514
1.667e-008,-97.874519,-175.75819
1.6685e-008,-97.96138,-149.08696
1.67e-008,-98.033714,-122.20309
1.6715e-008,-98.087234,-95.1241
1.673e-008,-98.117859,-67.876228
1.6745e-008,-98.122307,-40.491688
1.676e-008,-98.09816,-13.008323
1.6775e-008,-98.044174,14.533134
1.679e-008,-97.960564,42.088795
1.6805e-008,-97.848808,69.618362
1.682e-008,-97.711372,97.083298
1.6835e-008,-97.551926,124.45169
1.685e-008,-97.374626,151.69687
1.6865e-008,-97.184067,178.79984
1.688e-008,-96.984703,-154.25192
1.6895e-008,-96.781044,-127.46524
1.691e-008,-96.57708,-100.84206
1.6925e-008,-96.376495,-74.380775
1.694e-008,-96.182388,-48.076611
1.6955e-008,-95.997459,-21.923536
1.697e-008,-95.823845,4.0859385
1.6985e-008,-95.663345,29.959515
1.7e-008,-95.517311,55.70533
1.7015e-008,-95.38681,81.330414
1.703e-008,-95.272598,106.84177
1.7045e-008,-95.175156,132.24547
1.706e-008,-95.094788,157.54698
1.7075e-008,-95.031624,-177.24957
1.709e-008,-94.985649,-152.14037
1.7105e-008,-94.956673,-127.12291
1.712e-008,-94.944481,-102.19522
1.7135e-008,-94.948692,-77.356361
1.715e-008,-94.968887,-52.606026
1.7165e-008,-95.004501,-27.944773
1.718e-008,-95.055038,-3.3736436
1.7195e-008,-95.119789,21.105721
1.721e-008,-95.198074,45.490891
1.7225e-008,-95.289078,69.779587
1.724e-008,-95.392021,93.968483
1.7255e-008,-95.50592,118.05469
1.727e-008,-95.629852,142.03474
1.7285e-008,-95.762756,165.90549
1.73e-008,-95.903519,-170.33623
1.7315e-008,-96.050934,-146.69304
1.733e-008,-96.203735,-123.16759
1.7345e-008,-96.360664,-99.760994
1.736e-008,-96.520325,-76.474129
1.7375e-008,-96.681343,-53.307076
1.739e-008,-96.842293,-30.258299
1.7405e-008,-97.001877,-7.3246174
1.742e-008,-97.158691,15.497285
1.7435e-008,-97.311592,38.213387
1.745e-008,-97.459473,60.830322
1.7465e-008,-97.601402,83.356232
1.748e-008,-97.736626,105.80031
1.7495e-008,-97.864731,128.17249
1.751e-008,-97.98542,150.48337
1.7525e-008,-98.098763,172.74371
1.754e-008,-98.205032,-165.03561
1.7555e-008,-98.304779,-142.84497
1.757e-008,-98.398735,-120.674
1.7585e-008,-98.487793,-98.514763
1.76e-008,-98.573082,-76.359818
1.7615e-008,-98.655701,-54.202999
1.763e-008,-98.736862,-32.039452
1.7645e-008,-98.817719,-9.8660402
1.766e-008,-98.899475,12.319509
1.7675e-008,-98.983185,34.518639
1.769e-008,-99.069824,56.731373
1.7705e-008,-99.160248,78.957359
1.772e-008,-99.255188,101.19508
1.7735e-008,-99.355194,123.44353
1.775e-008,-99.460777,145.70078
1.7765e-008,-99.572151,167.9655
1.778e-008,-99.689507,-169.76405
1.7795e-008,-99.812889,-147.48917
1.781e-008,-99.942238,-125.21063
1.7825e-008,-100.07742,-102.92844
1.784e-008,-100.21818,-80.642601
1.7855e-008,-100.36432,-58.351952
1.787e-008,-100.51554,-36.055096
1.7885e-008,-100.67161,-13.749516
1.79e-008,-100.83229,8.5678911
1.7915e-008,-100.99742,30.900463
1.793e-008,-101.16695,53.252041
1.7945e-008,-101.34088,75.626884
1.796e-008,-101.51933,98.029816
1.7975e-008,-101.70261,120.46507
1.799e-008,-101.89108,142.93704
1.8005e-008,-102.08527,165.44963
1.802e-008,-102.28596,-171.99339
1.8035e-008,-102.49382,-149.38907
1.805e-008,-102.70982,-126.7354
1.8065e-008,-102.93504,-104.03091
1.808e-008,-103.17056,-81.275536
1.8095e-008,-103.41763,-58.469391
1.811e-008,-103.67756,-35.615074
1.8125e-008,-103.95174,-12.714872
1.814e-008,-104.24161,10.226554
1.8155e-008,-104.54874,33.204155
1.817e-008,-104.87461,56.210796
1.8185e-008,-105.22095,79.238747
1.82e-008,-105.58936,102.27802
1.8215e-008,-105.98172,125.31739
1.823e-008,-106.39986,148.3443
1.8245e-008,-106.84575,171.34343
1.826e-008,-107.32134,-165.70351
1.8275e-008,-107.82892,-142.81715
1.829e-008,-108.37056,-120.02123
1.8305e-008,-108.94848,-97.345543
1.832e-008,-109.565,-74.823265
1.8335e-008,-110.22228,-52.497349
1.835e-008,-110.92191,-30.418453
1.8365e-008,-111.66523,-8.6486807
1.838e-008,-112.4521,12.735075
1.8395e-008,-113.28058,33.641262
1.841e-008,-114.14478,53.955204
1.8425e-008,-115.03352,73.550117
1.844e-008,-115.92735,92.287285
1.8455e-008,-116.79441,110.0437
1.847e-008,-117.58957,126.75445
1.8485e-008,-118.25549,142.4792
1.85e-008,-118.73639,157.47112
1.8515e-008,-118.99368,172.17114
1.853e-008,-119.02547,-172.89519
1.8545e-008,-118.86554,-157.26846
1.856e-008,-118.56973,-140.67812
1.8575e-008,-118.19482,-123.03702
1.859e-008,-117.78707,-104.39387
1.8605e-008,-117.37928,-84.864059
1.862e-008,-116.99147,-64.579613
1.8635e-008,-116.63491,-43.662853
1.865e-008,-116.31438,-22.217907
1.8665e-008,-116.0314,-0.33073208
1.868e-008,-115.78483,21.935551
1.8695e-008,-115.57206,44.528522
1.871e-008,-115.38953,67.409859
1.8725e-008,-115.23338,90.552788
1.874e-008,-115.09882,113.93642
1.8755e-008,-114.98115,137.54895
1.877e-008,-114.87565,161.37985
1.8785e-008,-114.77736,-174.57974
1.88e-008,-114.68161,-150.33475
1.8815e-008,-114.58324,-125.89328
1.883e-008,-114.47763,-101.26264
1.8845e-008,-114.36074,-76.453896
1.886e-008,-114.22854,-51.482849
1.8875e-008,-114.07789,-26.365694
1.889e-008,-113.90672,-1.1253743
1.8905e-008,-113.71342,24.215235
1.892e-008,-113.49794,49.627357
1.8935e-008,-113.26083,75.085052
1.895e-008,-113.00425,100.56047
1.8965e-008,-112.73045,126.02975
1.898e-008,-112.44321,151.46982
1.8995e-008,-112.14654,176.86218
1.901e-008,-111.84467,-157.80795
1.9025e-008,-111.54204,-132.55148
1.904e-008,-111.24313,-107.37801
1.9055e-008,-110.9521,-82.289772
1.907e-008,-110.67307,-57.290127
1.9085e-008,-110.40987,-32.379234
1.91e-008,-110.16582,-7.5563111
1.9115e-008,-109.94415,17.180779
1.913e-008,-109.74757,41.83395
1.9145e-008,-109.57884,66.405266
1.916e-008,-109.44009,90.897766
1.9175e-008,-109.33363,115.31235
1.919e-008,-109.26143,139.64981
1.9205e-008,-109.22544,163.9106
1.922e-008,-109.22728,-171.90656
1.9235e-008,-109.26893,-147.80434
1.925e-008,-109.35203,-123.78616
1.9265e-008,-109.47824,-99.857422
1.928e-008,-109.64962,-76.024536
1.9295e-008,-109.86778,-52.299496
1.931e-008,-110.13464,-28.69285
1.9325e-008,-110.45213,-5.2215862
1.934e-008,-110.82224,18.093504
1.9355e-008,-111.24667,41.227566
1.937e-008,-111.72728,64.147545
1.9385e-008,-112.26524,86.814781
1.94e-008,-112.86147,109.1768
1.9415e-008,-113.51482,131.17361
1.943e-008,-114.22311,152.72957
1.9445e-008,-114.97997,173.7583
1.946e-008,-115.77449,-165.84055
1.9475e-008,-116.58849,-146.16161
1.949e-008,-117.39425,-127.28347
1.9505e-008,-118.15469,-109.22112
1.952e-008,-118.8246,-91.886986
1.9535e-008,-119.36168,-75.044479
1.955e-008,-119.73861,-58.31675
1.9565e-008,-119.95526,-41.256039
1.958e-008,-120.03889,-23.453531
1.9595e-008,-120.03535,-4.6278586
1.961e-008,-119.99332,15.377749
1.9625e-008,-119.95561,36.604004
1.964e-008,-119.95518,59.061993
1.9655e-008,-120.01238,82.747185
1.967e-008,-120.13709,107.69585
1.9685e-008,-120.32727,133.97043
1.97e-008,-120.56751,161.6962
1.9715e-008,-120.82214,-168.99564
1.973e-008,-121.03208,-138.00592
1.9745e-008,-121.11379,-105.39986
1.976e-008,-120.97721,-71.545258
1.9775e-008,-120.56054,-37.140289
1.979e-008,-119.86549,-3.0168645
1.9805e-008,-118.95504,30.162075
1.982e-008,-117.91749,62.082863
1.9835e-008,-116.83142,92.736877
1.985e-008,-115.75331,122.27192
1.9865e-008,-114.71587,150.88638
1.988e-008,-113.73692,178.76657
1.9895e-008,-112.82306,-153.92995
1.991e-008,-111.97686,-127.07839
1.9925e-008,-111.19624,-100.58154
1.994e-008,-110.47887,-74.366577
1.9955e-008,-109.82085,-48.375366
1.997e-008,-109.2187,-22.566799
1.9985e-008,-108.66887,3.0931242
2e-008,-108.16776,28.629061
END

