!CSV A.01.01
!Keysight Technologies,N5227B,US58420762,A.13.80.08
!Date: Monday, November 20, 2023 16:53:46
!Source: Standard

BEGIN CH1_DATA
Time(s),S21(DB),S21(DEG)
5e-009,-115.28544,-131.81203
5.015e-009,-113.70498,-106.54008
5.03e-009,-112.53033,-81.351883
5.045e-009,-111.66428,-56.179726
5.06e-009,-111.05067,-30.981213
5.075e-009,-110.65659,-5.7173858
5.09e-009,-110.46319,19.646385
5.105e-009,-110.46213,45.158894
5.12e-009,-110.65349,70.879745
5.135e-009,-111.04552,96.896881
5.15e-009,-111.65516,123.34542
5.165e-009,-112.51015,150.4445
5.18e-009,-113.6517,178.56778
5.195e-009,-115.13501,-151.58331
5.21e-009,-117.0101,-118.6176
5.225e-009,-119.20729,-79.728073
5.24e-009,-121.06381,-30.908798
5.255e-009,-120.99854,24.750959
5.27e-009,-119.01635,73.526131
5.285e-009,-116.69766,112.37004
5.3e-009,-114.70343,145.29565
5.315e-009,-113.1024,175.09947
5.33e-009,-111.84503,-156.82732
5.345e-009,-110.87676,-129.7941
5.36e-009,-110.15765,-103.42471
5.375e-009,-109.66072,-77.505669
5.39e-009,-109.37019,-51.907269
5.405e-009,-109.28,-26.550756
5.42e-009,-109.39236,-1.386091
5.435e-009,-109.71957,23.617702
5.45e-009,-110.28593,48.467911
5.465e-009,-111.13427,73.156944
5.48e-009,-112.33746,97.645599
5.495e-009,-114.02744,121.82122
5.51e-009,-116.46825,145.39409
5.525e-009,-120.31046,167.32442
5.54e-009,-128.00465,-179.68706
5.555e-009,-131.30704,74.836678
5.57e-009,-121.18174,78.729279
5.585e-009,-116.49448,99.805252
5.6e-009,-113.50271,123.11523
5.615e-009,-111.36079,147.15414
5.63e-009,-109.74722,171.53539
5.645e-009,-108.50765,-163.88069
5.66e-009,-107.55697,-139.1489
5.675e-009,-106.84504,-114.29205
5.69e-009,-106.34118,-89.313225
5.705e-009,-106.02766,-64.201859
5.72e-009,-105.89507,-38.935944
5.735e-009,-105.94186,-13.477086
5.75e-009,-106.17291,12.231008
5.765e-009,-106.60035,38.277966
5.78e-009,-107.24493,64.804237
5.795e-009,-108.13807,92.045296
5.81e-009,-109.3253,120.41475
5.825e-009,-110.86497,150.69434
5.84e-009,-112.80372,-175.5424
5.855e-009,-115.02563,-135.14818
5.87e-009,-116.68786,-84.272675
5.885e-009,-116.19739,-28.462511
5.9e-009,-114.02848,18.731773
5.915e-009,-111.7213,56.504345
5.93e-009,-109.78205,88.981804
5.945e-009,-108.23795,118.69414
5.96e-009,-107.03368,146.88408
5.975e-009,-106.11691,174.18642
5.99e-009,-105.45029,-159.04384
6.005e-009,-105.00985,-132.59129
6.02e-009,-104.78267,-106.30659
6.035e-009,-104.7653,-80.071907
6.05e-009,-104.96342,-53.776066
6.065e-009,-105.39281,-27.292948
6.08e-009,-106.08226,-0.44962886
6.095e-009,-107.07824,27.027832
6.11e-009,-108.45499,55.636517
6.125e-009,-110.32481,86.403152
6.14e-009,-112.82496,121.76117
6.155e-009,-115.81693,167.80354
6.17e-009,-117.26124,-128.75728
6.185e-009,-114.96053,-68.813828
6.2e-009,-111.85965,-25.951992
6.215e-009,-109.37068,8.1583204
6.23e-009,-107.50067,38.53241
6.245e-009,-106.11844,67.169472
6.26e-009,-105.12987,94.966362
6.275e-009,-104.47913,122.41251
6.29e-009,-104.13777,149.84741
6.305e-009,-104.09807,177.589
6.32e-009,-104.36799,-153.97154
6.335e-009,-104.96666,-124.24007
6.35e-009,-105.90608,-92.200935
6.365e-009,-107.12342,-56.072529
6.38e-009,-108.26112,-13.373467
6.395e-009,-108.40126,35.871666
6.41e-009,-106.93766,84.208054
6.425e-009,-104.64239,125.21535
6.44e-009,-102.35088,159.67175
6.455e-009,-100.34581,-170.0112
6.47e-009,-98.663033,-142.26425
6.485e-009,-97.278488,-116.25992
6.5e-009,-96.162216,-91.597237
6.515e-009,-95.289513,-68.128075
6.53e-009,-94.640739,-45.87991
6.545e-009,-94.195923,-25.03693
6.56e-009,-93.924057,-5.9456992
6.575e-009,-93.762062,10.893785
6.59e-009,-93.581055,24.951616
6.605e-009,-93.159843,36.110733
6.62e-009,-92.245415,45.381248
6.635e-009,-90.740372,54.915512
6.65e-009,-88.797173,66.619598
6.665e-009,-86.663177,81.099144
6.68e-009,-84.520363,98.023064
6.695e-009,-82.460342,116.80729
6.71e-009,-80.517426,136.93701
6.725e-009,-78.698235,158.03214
6.74e-009,-76.997894,179.82651
6.755e-009,-75.407509,-157.86424
6.77e-009,-73.917397,-135.16879
6.785e-009,-72.518379,-112.1784
6.8e-009,-71.202187,-88.958878
6.815e-009,-69.961601,-65.55851
6.83e-009,-68.790298,-42.013355
6.845e-009,-67.682823,-18.350739
6.86e-009,-66.63443,5.4083319
6.875e-009,-65.640999,29.247478
6.89e-009,-64.698921,53.153797
6.905e-009,-63.805031,77.117027
6.92e-009,-62.956539,101.12888
6.935e-009,-62.150974,125.18267
6.95e-009,-61.386147,149.27292
6.965e-009,-60.660095,173.39511
6.98e-009,-59.971073,-162.45448
6.995e-009,-59.317493,-138.27893
7.01e-009,-58.697945,-114.08085
7.025e-009,-58.11113,-89.862366
7.04e-009,-57.555893,-65.625328
7.055e-009,-57.03117,-41.371227
7.07e-009,-56.535988,-17.101345
7.085e-009,-56.069462,7.1832552
7.1e-009,-55.630787,31.481701
7.115e-009,-55.219219,55.793259
7.13e-009,-54.834068,80.117332
7.145e-009,-54.474709,104.45347
7.16e-009,-54.140553,128.80128
7.175e-009,-53.83107,153.16051
7.19e-009,-53.545757,177.53094
7.205e-009,-53.284153,-158.08749
7.22e-009,-53.045826,-133.69485
7.235e-009,-52.830372,-109.2911
7.25e-009,-52.637424,-84.876144
7.265e-009,-52.466629,-60.449844
7.28e-009,-52.317654,-36.011963
7.295e-009,-52.190189,-11.562258
7.31e-009,-52.083946,12.899609
7.325e-009,-51.998642,37.374001
7.34e-009,-51.934006,61.861359
7.355e-009,-51.88979,86.362144
7.37e-009,-51.865738,110.8769
7.385e-009,-51.861614,135.40619
7.4e-009,-51.877174,159.95067
7.415e-009,-51.912189,-175.48898
7.43e-009,-51.966419,-150.91206
7.445e-009,-52.039623,-126.31775
7.46e-009,-52.131557,-101.70525
7.475e-009,-52.24197,-77.073685
7.49e-009,-52.370598,-52.422153
7.505e-009,-52.517166,-27.749697
7.52e-009,-52.681377,-3.055351
7.535e-009,-52.862919,21.661892
7.55e-009,-53.061462,46.40303
7.565e-009,-53.276634,71.169083
7.58e-009,-53.508053,95.961044
7.595e-009,-53.755287,120.77989
7.61e-009,-54.017876,145.62653
7.625e-009,-54.295319,170.50182
7.64e-009,-54.587067,-164.59352
7.655e-009,-54.892532,-139.65886
7.67e-009,-55.211071,-114.69376
7.685e-009,-55.541992,-89.698044
7.7e-009,-55.884563,-64.671707
7.715e-009,-56.237984,-39.615101
7.73e-009,-56.601425,-14.528905
7.745e-009,-56.973999,10.585782
7.76e-009,-57.354786,35.727421
7.775e-009,-57.742832,60.893997
7.79e-009,-58.137177,86.082947
7.805e-009,-58.536819,111.29116
7.82e-009,-58.9408,136.515
7.835e-009,-59.348148,161.7502
7.85e-009,-59.757957,-173.00792
7.865e-009,-60.169357,-147.7646
7.88e-009,-60.581558,-122.52543
7.895e-009,-60.993858,-97.296333
7.91e-009,-61.405678,-72.083344
7.925e-009,-61.816536,-46.89257
7.94e-009,-62.226097,-21.729958
7.955e-009,-62.634159,3.3988309
7.97e-009,-63.040676,28.488594
7.985e-009,-63.445732,53.534798
8e-009,-63.84956,78.533646
8.015e-009,-64.252533,103.48226
8.03e-009,-64.655151,128.3788
8.045e-009,-65.058029,153.2225
8.06e-009,-65.461906,178.01376
8.075e-009,-65.867607,-157.24586
8.09e-009,-66.27607,-132.55359
8.105e-009,-66.688293,-107.90552
8.12e-009,-67.105362,-83.296562
8.135e-009,-67.528427,-58.72057
8.15e-009,-67.958679,-34.170307
8.165e-009,-68.397377,-9.6375351
8.18e-009,-68.84581,14.886992
8.195e-009,-69.30529,39.413464
8.21e-009,-69.777161,63.95311
8.225e-009,-70.262756,88.518158
8.24e-009,-70.763374,113.12193
8.255e-009,-71.280304,137.77888
8.27e-009,-71.81472,162.5049
8.285e-009,-72.367691,-172.68274
8.3e-009,-72.940086,-147.76505
8.315e-009,-73.532532,-122.72111
8.33e-009,-74.145279,-97.528015
8.345e-009,-74.778069,-72.160561
8.36e-009,-75.430008,-46.591457
8.375e-009,-76.099297,-20.79138
8.39e-009,-76.782997,5.270195
8.405e-009,-77.476746,31.623547
8.42e-009,-78.174461,58.296738
8.435e-009,-78.86808,85.311653
8.45e-009,-79.547478,112.67933
8.465e-009,-80.200699,140.39372
8.48e-009,-80.814606,168.42529
8.495e-009,-81.376137,-163.28433
8.51e-009,-81.874008,-134.82346
8.525e-009,-82.30056,-106.30603
8.54e-009,-82.653229,-77.861099
8.555e-009,-82.935089,-49.618198
8.57e-009,-83.154228,-21.692533
8.585e-009,-83.322227,5.8250871
8.6e-009,-83.452286,32.872768
8.615e-009,-83.557457,59.415886
8.63e-009,-83.649406,85.4422
8.645e-009,-83.737686,110.95518
8.66e-009,-83.829514,135.96867
8.675e-009,-83.929794,160.50188
8.69e-009,-84.041344,-175.42332
8.705e-009,-84.165115,-151.78424
8.72e-009,-84.300514,-128.55765
8.735e-009,-84.445671,-105.71989
8.75e-009,-84.597656,-83.245796
8.765e-009,-84.7528,-61.107735
8.78e-009,-84.907028,-39.274738
8.795e-009,-85.056114,-17.711487
8.81e-009,-85.196083,3.621964
8.825e-009,-85.323524,24.769716
8.84e-009,-85.435951,45.779442
8.855e-009,-85.531975,66.700096
8.87e-009,-85.611496,87.580574
8.885e-009,-85.675583,108.46674
8.9e-009,-85.726448,129.39998
8.915e-009,-85.767136,150.41547
8.93e-009,-85.801277,171.54137
8.945e-009,-85.832748,-167.20132
8.96e-009,-85.865501,-145.79828
8.975e-009,-85.903236,-124.24121
8.99e-009,-85.949364,-102.5267
9.005e-009,-86.006821,-80.654999
9.02e-009,-86.078072,-58.629436
9.035e-009,-86.165123,-36.455013
9.05e-009,-86.269516,-14.137878
9.065e-009,-86.392311,8.3153925
9.08e-009,-86.534256,30.898035
9.095e-009,-86.69574,53.603745
9.11e-009,-86.876839,76.426689
9.125e-009,-87.077393,99.36174
9.14e-009,-87.29705,122.40483
9.155e-009,-87.535316,145.55247
9.17e-009,-87.791527,168.80234
9.185e-009,-88.064972,-167.84715
9.2e-009,-88.354897,-144.39661
9.215e-009,-88.660545,-120.8457
9.23e-009,-88.981133,-97.193481
9.245e-009,-89.316048,-73.438156
9.26e-009,-89.664711,-49.577003
9.275e-009,-90.026749,-25.607214
9.29e-009,-90.401985,-1.5247681
9.305e-009,-90.790459,22.67482
9.32e-009,-91.192505,46.996727
9.335e-009,-91.608841,71.447334
9.35e-009,-92.040504,96.033875
9.365e-009,-92.488968,120.76527
9.38e-009,-92.9562,145.65236
9.395e-009,-93.444633,170.70927
9.41e-009,-93.957153,-164.04698
9.425e-009,-94.497269,-138.59268
9.44e-009,-95.068878,-112.89862
9.455e-009,-95.676369,-86.923988
9.47e-009,-96.324272,-60.615982
9.485e-009,-97.017204,-33.903378
9.5e-009,-97.758713,-6.6901817
9.515e-009,-98.550407,21.152084
9.53e-009,-99.38913,49.792141
9.545e-009,-100.26313,79.446892
9.56e-009,-101.14445,110.37019
9.575e-009,-101.97965,142.81078
9.59e-009,-102.6823,176.89023
9.605e-009,-103.14082,-147.58948
9.62e-009,-103.25838,-111.30182
9.635e-009,-103.00945,-75.253983
9.65e-009,-102.45862,-40.353661
9.665e-009,-101.71853,-7.0645375
9.68e-009,-100.89579,24.578306
9.695e-009,-100.06485,54.773434
9.71e-009,-99.269753,83.782501
9.725e-009,-98.53302,111.84853
9.74e-009,-97.86454,139.16995
9.755e-009,-97.267365,165.89963
9.77e-009,-96.741104,-167.84666
9.785e-009,-96.28363,-141.98206
9.8e-009,-95.892319,-116.44161
9.815e-009,-95.564293,-91.176666
9.83e-009,-95.296844,-66.150963
9.845e-009,-95.087402,-41.33757
9.86e-009,-94.933647,-16.716509
9.875e-009,-94.83345,7.7260652
9.89e-009,-94.784874,31.999846
9.905e-009,-94.786026,56.110527
9.92e-009,-94.835243,80.060684
9.935e-009,-94.930656,103.85027
9.95e-009,-95.070518,127.47722
9.965e-009,-95.252846,150.9371
9.98e-009,-95.475426,174.22467
9.995e-009,-95.735733,-162.66702
1.001e-008,-96.030846,-139.74471
1.0025e-008,-96.357292,-117.01482
1.004e-008,-96.711098,-94.482483
1.0055e-008,-97.087471,-72.149193
1.007e-008,-97.481117,-50.013348
1.0085e-008,-97.886024,-28.065073
1.01e-008,-98.29583,-6.2877631
1.0115e-008,-98.703949,15.346724
1.013e-008,-99.104088,36.877125
1.0145e-008,-99.490631,58.353989
1.016e-008,-99.859322,79.837227
1.0175e-008,-100.20739,101.39582
1.019e-008,-100.53409,123.10177
1.0205e-008,-100.8404,145.0274
1.022e-008,-101.12894,167.23886
1.0235e-008,-101.40333,-170.20201
1.025e-008,-101.66765,-147.24695
1.0265e-008,-101.92578,-123.85616
1.028e-008,-102.18075,-99.999992
1.0295e-008,-102.43437,-75.66111
1.031e-008,-102.68697,-50.831657
1.0325e-008,-102.93725,-25.514462
1.034e-008,-103.1824,0.27424592
1.0355e-008,-103.41848,26.50687
1.037e-008,-103.64095,53.138798
1.0385e-008,-103.84554,80.11158
1.04e-008,-104.02881,107.35106
1.0415e-008,-104.18965,134.77216
1.043e-008,-104.3292,162.28383
1.0445e-008,-104.45179,-170.20419
1.046e-008,-104.56431,-142.77902
1.0475e-008,-104.67619,-115.51482
1.049e-008,-104.79839,-88.47493
1.0505e-008,-104.94317,-61.710609
1.052e-008,-105.12294,-35.264351
1.0535e-008,-105.35065,-9.1720076
1.055e-008,-105.63923,16.526966
1.0565e-008,-106.00189,41.788578
1.058e-008,-106.45222,66.549194
1.0595e-008,-107.00487,90.717659
1.061e-008,-107.6747,114.1543
1.0625e-008,-108.47628,136.64342
1.064e-008,-109.41973,157.84811
1.0655e-008,-110.50074,177.24527
1.067e-008,-111.67233,-165.93082
1.0685e-008,-112.78853,-152.59094
1.07e-008,-113.53899,-143.10771
1.0715e-008,-113.54574,-135.9247
1.073e-008,-112.72772,-127.6306
1.0745e-008,-111.40543,-115.84248
1.076e-008,-109.93933,-100.42348
1.0775e-008,-108.52785,-82.226303
1.079e-008,-107.24411,-62.104507
1.0805e-008,-106.10339,-40.671307
1.082e-008,-105.09986,-18.328644
1.0835e-008,-104.22092,4.6596293
1.085e-008,-103.45365,28.118412
1.0865e-008,-102.78607,51.928715
1.088e-008,-102.20787,76.008904
1.0895e-008,-101.71035,100.30103
1.091e-008,-101.28604,124.76007
1.0925e-008,-100.92867,149.35425
1.094e-008,-100.63303,174.05771
1.0955e-008,-100.39435,-161.15033
1.097e-008,-100.20876,-136.28719
1.0985e-008,-100.07296,-111.36736
1.1e-008,-99.98391,-86.406471
1.1015e-008,-99.939079,-61.416275
1.103e-008,-99.936371,-36.409958
1.1045e-008,-99.973694,-11.401734
1.106e-008,-100.04978,13.595773
1.1075e-008,-100.16299,38.567982
1.109e-008,-100.31242,63.498795
1.1105e-008,-100.49706,88.372643
1.112e-008,-100.71686,113.1701
1.1135e-008,-100.9708,137.87303
1.115e-008,-101.25925,162.45773
1.1165e-008,-101.58195,-173.09875
1.118e-008,-101.93929,-148.82358
1.1195e-008,-102.33149,-124.745
1.121e-008,-102.75864,-100.89736
1.1225e-008,-103.22112,-77.317917
1.124e-008,-103.71871,-54.047424
1.1255e-008,-104.25075,-31.133413
1.127e-008,-104.81539,-8.6298771
1.1285e-008,-105.41048,13.404221
1.13e-008,-106.03072,34.905014
1.1315e-008,-106.66882,55.802174
1.133e-008,-107.31403,76.028
1.1345e-008,-107.95113,95.525528
1.136e-008,-108.55976,114.25487
1.1375e-008,-109.11601,132.21632
1.139e-008,-109.59403,149.46892
1.1405e-008,-109.96901,166.13451
1.142e-008,-110.22406,-177.60236
1.1435e-008,-110.35278,-161.52708
1.145e-008,-110.36134,-145.42505
1.1465e-008,-110.26585,-129.13211
1.148e-008,-110.08723,-112.53439
1.1495e-008,-109.84655,-95.588745
1.151e-008,-109.56184,-78.290024
1.1525e-008,-109.24641,-60.659496
1.154e-008,-108.90955,-42.729458
1.1555e-008,-108.55648,-24.526667
1.157e-008,-108.19013,-6.0722804
1.1585e-008,-107.8124,12.623882
1.16e-008,-107.42479,31.565552
1.1615e-008,-107.02893,50.758732
1.163e-008,-106.62737,70.216614
1.1645e-008,-106.22342,89.954422
1.166e-008,-105.82124,109.98208
1.1675e-008,-105.42512,130.30978
1.169e-008,-105.04008,150.93947
1.1705e-008,-104.67071,171.87125
1.172e-008,-104.32141,-166.90097
1.1735e-008,-103.99642,-145.38376
1.175e-008,-103.69934,-123.58941
1.1765e-008,-103.43325,-101.52798
1.178e-008,-103.20074,-79.212624
1.1795e-008,-103.00397,-56.654362
1.181e-008,-102.84476,-33.865005
1.1825e-008,-102.72442,-10.852876
1.184e-008,-102.64388,12.373453
1.1855e-008,-102.6041,35.807323
1.187e-008,-102.60531,59.445965
1.1885e-008,-102.64791,83.286171
1.19e-008,-102.73162,107.32935
1.1915e-008,-102.85631,131.57709
1.193e-008,-103.02112,156.03435
1.1945e-008,-103.22501,-179.29112
1.196e-008,-103.46639,-154.39041
1.1975e-008,-103.74318,-129.25249
1.199e-008,-104.0524,-103.86552
1.2005e-008,-104.3903,-78.216339
1.202e-008,-104.75224,-52.293262
1.2035e-008,-105.13225,-26.086729
1.205e-008,-105.52335,0.40642485
1.2065e-008,-105.9172,27.182791
1.208e-008,-106.3048,54.227833
1.2095e-008,-106.67645,81.509338
1.211e-008,-107.02309,108.98227
1.2125e-008,-107.33646,136.5829
1.214e-008,-107.6107,164.2336
1.2155e-008,-107.84268,-168.15254
1.217e-008,-108.0326,-140.66223
1.2185e-008,-108.18374,-113.37614
1.22e-008,-108.30203,-86.361748
1.2215e-008,-108.39459,-59.66964
1.223e-008,-108.46964,-33.331497
1.2245e-008,-108.53504,-7.3597808
1.226e-008,-108.59805,18.245317
1.2275e-008,-108.66458,43.499863
1.229e-008,-108.74016,68.427155
1.2305e-008,-108.82864,93.058235
1.232e-008,-108.93378,117.43169
1.2335e-008,-109.05817,141.58859
1.235e-008,-109.20493,165.5741
1.2365e-008,-109.37682,-170.56108
1.238e-008,-109.57686,-146.76509
1.2395e-008,-109.80888,-122.98087
1.241e-008,-110.07717,-99.148117
1.2425e-008,-110.38737,-75.19883
1.244e-008,-110.74543,-51.060349
1.2455e-008,-111.15884,-26.643591
1.247e-008,-111.63557,-1.8443037
1.2485e-008,-112.18365,23.469734
1.25e-008,-112.81087,49.470783
1.2515e-008,-113.52143,76.394249
1.253e-008,-114.31042,104.55338
1.2545e-008,-115.15406,134.36967
1.256e-008,-115.9884,166.32585
1.2575e-008,-116.68407,-159.19087
1.259e-008,-117.04513,-122.34959
1.2605e-008,-116.89223,-84.315842
1.262e-008,-116.20386,-46.932884
1.2635e-008,-115.13899,-11.57556
1.265e-008,-113.90304,21.394789
1.2665e-008,-112.64297,52.288662
1.268e-008,-111.43616,81.582596
1.2695e-008,-110.31517,109.70739
1.271e-008,-109.28952,136.98663
1.2725e-008,-108.35802,163.65263
1.274e-008,-107.5152,-170.1282
1.2755e-008,-106.7544,-144.23981
1.277e-008,-106.06845,-118.59804
1.2785e-008,-105.45103,-93.1427
1.28e-008,-104.89603,-67.829582
1.2815e-008,-104.39787,-42.62608
1.283e-008,-103.95166,-17.508888
1.2845e-008,-103.55273,7.53929
1.286e-008,-103.19675,32.530704
1.2875e-008,-102.87974,57.474014
1.289e-008,-102.59789,82.374176
1.2905e-008,-102.34757,107.23298
1.292e-008,-102.12508,132.0519
1.2935e-008,-101.92708,156.828
1.295e-008,-101.75005,-178.44119
1.2965e-008,-101.59072,-153.76051
1.298e-008,-101.44575,-129.13588
1.2995e-008,-101.31187,-104.57339
1.301e-008,-101.18589,-80.0802
1.3025e-008,-101.0648,-55.66386
1.304e-008,-100.94557,-31.329607
1.3055e-008,-100.82547,-7.084743
1.307e-008,-100.70184,17.066803
1.3085e-008,-100.57233,41.122181
1.31e-008,-100.43482,65.079956
1.3115e-008,-100.28768,88.941368
1.313e-008,-100.12945,112.70985
1.3145e-008,-99.959351,136.3909
1.316e-008,-99.776833,159.99232
1.3175e-008,-99.582001,-176.47556
1.319e-008,-99.375259,-153.00214
1.3205e-008,-99.157722,-129.5755
1.322e-008,-98.930779,-106.18274
1.3235e-008,-98.696182,-82.812164
1.325e-008,-98.456047,-59.4524
1.3265e-008,-98.212761,-36.092522
1.328e-008,-97.968773,-12.724002
1.3295e-008,-97.7267,10.661468
1.331e-008,-97.489105,34.069481
1.3325e-008,-97.258514,57.505146
1.334e-008,-97.037415,80.971191
1.3355e-008,-96.828102,104.46918
1.337e-008,-96.632759,128.00003
1.3385e-008,-96.453384,151.56351
1.34e-008,-96.291786,175.15762
1.3415e-008,-96.149635,-161.21933
1.343e-008,-96.028343,-137.57031
1.3445e-008,-95.929207,-113.89863
1.346e-008,-95.853432,-90.20826
1.3475e-008,-95.801949,-66.503372
1.349e-008,-95.775574,-42.788746
1.3505e-008,-95.775055,-19.069696
1.352e-008,-95.800903,4.6482325
1.3535e-008,-95.853561,28.358717
1.355e-008,-95.933327,52.055077
1.3565e-008,-96.040321,75.72995
1.358e-008,-96.174469,99.375038
1.3595e-008,-96.335579,122.98145
1.361e-008,-96.523178,146.53938
1.3625e-008,-96.736588,170.03758
1.364e-008,-96.974747,-166.53571
1.3655e-008,-97.236305,-143.19376
1.367e-008,-97.519348,-119.95071
1.3685e-008,-97.821533,-96.821945
1.37e-008,-98.139755,-73.822647
1.3715e-008,-98.4702,-50.969131
1.373e-008,-98.808174,-28.275999
1.3745e-008,-99.147987,-5.7562103
1.376e-008,-99.483009,16.58098
1.3775e-008,-99.805489,38.732616
1.379e-008,-100.10714,60.703327
1.3805e-008,-100.37894,82.508347
1.382e-008,-100.61211,104.175
1.3835e-008,-100.79843,125.74265
1.385e-008,-100.93137,147.26279
1.3865e-008,-101.0062,168.79373
1.388e-008,-101.02106,-169.60223
1.3895e-008,-100.97659,-147.86574
1.391e-008,-100.87611,-125.94557
1.3925e-008,-100.72473,-103.80231
1.394e-008,-100.52902,-81.410217
1.3955e-008,-100.29594,-58.757729
1.397e-008,-100.03291,-35.845688
1.3985e-008,-99.746658,-12.685093
1.4e-008,-99.443573,10.706057
1.4015e-008,-99.129189,34.304806
1.403e-008,-98.808502,58.086082
1.4045e-008,-98.485733,82.024399
1.406e-008,-98.16449,106.09391
1.4075e-008,-97.848007,130.27187
1.409e-008,-97.538879,154.53603
1.4105e-008,-97.239471,178.86763
1.412e-008,-96.951736,-156.74995
1.4135e-008,-96.677383,-132.33134
1.415e-008,-96.417831,-107.88833
1.4165e-008,-96.174347,-83.430573
1.418e-008,-95.947922,-58.966431
1.4195e-008,-95.739471,-34.501518
1.421e-008,-95.549767,-10.041424
1.4225e-008,-95.379379,14.411136
1.424e-008,-95.228813,38.853691
1.4255e-008,-95.098526,63.284981
1.427e-008,-94.988899,87.704758
1.4285e-008,-94.900139,112.11327
1.43e-008,-94.832542,136.51172
1.4315e-008,-94.786331,160.90169
1.433e-008,-94.761658,-174.71486
1.4345e-008,-94.758743,-150.33522
1.436e-008,-94.777763,-125.95637
1.4375e-008,-94.818848,-101.57502
1.439e-008,-94.882286,-77.187401
1.4405e-008,-94.968262,-52.789833
1.442e-008,-95.077042,-28.377922
1.4435e-008,-95.209023,-3.9475408
1.445e-008,-95.364456,20.506552
1.4465e-008,-95.543877,44.988411
1.448e-008,-95.747772,69.503647
1.4495e-008,-95.97673,94.05687
1.451e-008,-96.231407,118.65376
1.4525e-008,-96.512642,143.29941
1.454e-008,-96.821327,167.99922
1.4555e-008,-97.158539,-167.24133
1.457e-008,-97.525452,-142.41664
1.4585e-008,-97.923538,-117.52156
1.46e-008,-98.354446,-92.550529
1.4615e-008,-98.820114,-67.498581
1.463e-008,-99.322807,-42.360458
1.4645e-008,-99.865227,-17.132536
1.466e-008,-100.45084,8.1901293
1.4675e-008,-101.08347,33.609837
1.469e-008,-101.76838,59.129456
1.4705e-008,-102.51183,84.749008
1.472e-008,-103.3222,110.46655
1.4735e-008,-104.21043,136.27936
1.475e-008,-105.19103,162.1765
1.4765e-008,-106.28478,-171.85693
1.478e-008,-107.52128,-145.84528
1.4795e-008,-108.94505,-119.83413
1.481e-008,-110.62701,-93.906204
1.4825e-008,-112.68904,-68.222961
1.484e-008,-115.36687,-43.173622
1.4855e-008,-119.20597,-19.989895
1.487e-008,-125.96214,-5.6682057
1.4885e-008,-132.08427,-83.527542
1.49e-008,-121.96338,-94.333885
1.4915e-008,-116.98581,-73.531799
1.493e-008,-113.76923,-48.913551
1.4945e-008,-111.37769,-23.162155
1.496e-008,-109.46031,3.0613465
1.4975e-008,-107.84956,29.497374
1.499e-008,-106.4529,56.030704
1.5005e-008,-105.21423,82.591377
1.502e-008,-104.09747,109.13966
1.5035e-008,-103.07847,135.6478
1.505e-008,-102.13975,162.09755
1.5065e-008,-101.26942,-171.52332
1.508e-008,-100.45813,-145.22345
1.5095e-008,-99.699348,-119.00759
1.511e-008,-98.987724,-92.878899
1.5125e-008,-98.319237,-66.839279
1.514e-008,-97.690735,-40.888359
1.5155e-008,-97.099487,-15.025952
1.517e-008,-96.543503,10.748988
1.5185e-008,-96.020966,36.439049
1.52e-008,-95.530434,62.045979
1.5215e-008,-95.070404,87.572159
1.523e-008,-94.639885,113.02015
1.5245e-008,-94.237831,138.39204
1.526e-008,-93.86338,163.69063
1.5275e-008,-93.515686,-171.08141
1.529e-008,-93.194,-145.92212
1.5305e-008,-92.897598,-120.82889
1.532e-008,-92.625893,-95.799232
1.5335e-008,-92.378281,-70.831329
1.535e-008,-92.154205,-45.92215
1.5365e-008,-91.953148,-21.070107
1.538e-008,-91.774597,3.727484
1.5395e-008,-91.618134,28.472641
1.541e-008,-91.483292,53.167931
1.5425e-008,-91.369682,77.815811
1.544e-008,-91.276924,102.41881
1.5455e-008,-91.204597,126.97948
1.547e-008,-91.15239,151.50081
1.5485e-008,-91.120026,175.98561
1.55e-008,-91.107124,-159.56256
1.5515e-008,-91.113449,-135.14027
1.553e-008,-91.138718,-110.74432
1.5545e-008,-91.182755,-86.370132
1.556e-008,-91.245277,-62.013439
1.5575e-008,-91.326149,-37.669319
1.559e-008,-91.425186,-13.332992
1.5605e-008,-91.542274,11.000999
1.562e-008,-91.677277,35.339134
1.5635e-008,-91.830124,59.687557
1.565e-008,-92.000717,84.053101
1.5665e-008,-92.189034,108.44382
1.568e-008,-92.394951,132.86729
1.5695e-008,-92.618515,157.33255
1.571e-008,-92.85955,-178.15105
1.5725e-008,-93.117981,-153.57358
1.574e-008,-93.393661,-128.92393
1.5755e-008,-93.686348,-104.19102
1.577e-008,-93.995644,-79.361984
1.5785e-008,-94.32106,-54.424389
1.58e-008,-94.661858,-29.363977
1.5815e-008,-95.017082,-4.1671209
1.583e-008,-95.385376,21.181021
1.5845e-008,-95.765068,46.69495
1.586e-008,-96.153946,72.388657
1.5875e-008,-96.549294,98.274689
1.589e-008,-96.947792,124.36425
1.5905e-008,-97.345444,150.66417
1.592e-008,-97.737694,177.17757
1.5935e-008,-98.119476,-156.10004
1.595e-008,-98.485344,-129.1792
1.5965e-008,-98.829895,-102.08134
1.598e-008,-99.147934,-74.83699
1.5995e-008,-99.435135,-47.485847
1.601e-008,-99.688545,-20.076157
1.6025e-008,-99.906502,7.3381205
1.604e-008,-100.08928,34.700466
1.6055e-008,-100.23885,61.956764
1.607e-008,-100.35891,89.056633
1.6085e-008,-100.45407,115.95721
1.61e-008,-100.52977,142.62495
1.6115e-008,-100.59166,169.03458
1.613e-008,-100.64536,-164.8308
1.6145e-008,-100.69574,-138.98123
1.616e-008,-100.74723,-113.42078
1.6175e-008,-100.80327,-88.15007
1.619e-008,-100.86652,-63.166252
1.6205e-008,-100.93871,-38.466022
1.622e-008,-101.02055,-14.042845
1.6235e-008,-101.11217,10.108485
1.625e-008,-101.21267,33.994499
1.6265e-008,-101.32046,57.623356
1.628e-008,-101.4333,81.004471
1.6295e-008,-101.54832,104.1494
1.631e-008,-101.66212,127.07162
1.6325e-008,-101.77093,149.78923
1.634e-008,-101.87097,172.3241
1.6355e-008,-101.95832,-165.29779
1.637e-008,-102.02937,-143.04517
1.6385e-008,-102.08119,-120.88349
1.64e-008,-102.11147,-98.775131
1.6415e-008,-102.11888,-76.681175
1.643e-008,-102.10297,-54.563175
1.6445e-008,-102.06435,-32.384457
1.646e-008,-102.00446,-10.113772
1.6475e-008,-101.92536,12.276826
1.649e-008,-101.82969,34.808426
1.6505e-008,-101.72034,57.496056
1.652e-008,-101.60016,80.34745
1.6535e-008,-101.47199,103.36591
1.655e-008,-101.33846,126.55007
1.6565e-008,-101.20197,149.8934
1.658e-008,-101.06441,173.38631
1.6595e-008,-100.92764,-162.98256
1.661e-008,-100.79309,-139.2276
1.6625e-008,-100.66191,-115.3643
1.664e-008,-100.5352,-91.407608
1.6655e-008,-100.4137,-67.374977
1.667e-008,-100.29823,-43.281635
1.6685e-008,-100.18936,-19.144693
1.67e-008,-100.08764,5.0213585
1.6715e-008,-99.993591,29.20101
1.673e-008,-99.90773,53.380585
1.6745e-008,-99.830399,77.547264
1.676e-008,-99.762184,101.68937
1.6775e-008,-99.703331,125.7964
1.679e-008,-99.654305,149.8587
1.6805e-008,-99.615402,173.86874
1.682e-008,-99.586876,-162.18083
1.6835e-008,-99.569031,-138.29526
1.685e-008,-99.561966,-114.47916
1.6865e-008,-99.565918,-90.735023
1.688e-008,-99.580994,-67.065216
1.6895e-008,-99.607231,-43.470333
1.691e-008,-99.64476,-19.95034
1.6925e-008,-99.693474,3.496599
1.694e-008,-99.75341,26.87232
1.6955e-008,-99.82473,50.180382
1.697e-008,-99.907356,73.424988
1.6985e-008,-100.0015,96.610802
1.7e-008,-100.10723,119.74284
1.7015e-008,-100.22488,142.82765
1.703e-008,-100.35468,165.87112
1.7045e-008,-100.49718,-171.11967
1.706e-008,-100.65279,-148.13928
1.7075e-008,-100.82222,-125.18044
1.709e-008,-101.00618,-102.23748
1.7105e-008,-101.20563,-79.304817
1.712e-008,-101.42149,-56.375996
1.7135e-008,-101.65476,-33.448097
1.715e-008,-101.90682,-10.516684
1.7165e-008,-102.17875,12.421069
1.718e-008,-102.47192,35.366531
1.7195e-008,-102.78764,58.32029
1.721e-008,-103.12746,81.281303
1.7225e-008,-103.49271,104.24738
1.724e-008,-103.88481,127.21568
1.7255e-008,-104.30526,150.17938
1.727e-008,-104.75558,173.13203
1.7285e-008,-105.23681,-163.93649
1.73e-008,-105.75057,-141.03784
1.7315e-008,-106.29771,-118.18652
1.733e-008,-106.87936,-95.401924
1.7345e-008,-107.49607,-72.704071
1.736e-008,-108.14803,-50.122185
1.7375e-008,-108.8349,-27.685738
1.739e-008,-109.5553,-5.4328766
1.7405e-008,-110.30675,16.59589
1.742e-008,-111.08505,38.348186
1.7435e-008,-111.88391,59.775269
1.745e-008,-112.69355,80.824753
1.7465e-008,-113.50141,101.44924
1.748e-008,-114.28966,121.616
1.7495e-008,-115.03804,141.32352
1.751e-008,-115.72315,160.61588
1.7525e-008,-116.32353,179.58862
1.754e-008,-116.82114,-161.60234
1.7555e-008,-117.20831,-142.77184
1.757e-008,-117.48904,-123.71407
1.7585e-008,-117.67703,-104.26775
1.76e-008,-117.79507,-84.313164
1.7615e-008,-117.86677,-63.794765
1.763e-008,-117.91696,-42.712605
1.7645e-008,-117.96683,-21.107183
1.766e-008,-118.03585,0.95847684
1.7675e-008,-118.13857,23.410475
1.769e-008,-118.28911,46.160133
1.7705e-008,-118.49988,69.120232
1.772e-008,-118.78394,92.193497
1.7735e-008,-119.15448,115.28622
1.775e-008,-119.62614,138.27274
1.7765e-008,-120.21809,161.01521
1.778e-008,-120.95152,-176.68768
1.7795e-008,-121.85503,-155.12624
1.781e-008,-122.95688,-134.76067
1.7825e-008,-124.28133,-116.37527
1.784e-008,-125.7999,-101.29873
1.7855e-008,-127.31104,-91.520905
1.787e-008,-128.19141,-88.188606
1.7885e-008,-127.67873,-87.272575
1.79e-008,-125.992,-81.703255
1.7915e-008,-123.95451,-69.729919
1.793e-008,-122.0195,-53.187962
1.7945e-008,-120.30495,-33.848907
1.796e-008,-118.81278,-12.805399
1.7975e-008,-117.51578,9.3302603
1.799e-008,-116.38644,32.186493
1.8005e-008,-115.40054,55.550209
1.802e-008,-114.53967,79.276291
1.8035e-008,-113.78907,103.28162
1.805e-008,-113.1368,127.50487
1.8065e-008,-112.57381,151.90631
1.808e-008,-112.09209,176.45976
1.8095e-008,-111.6862,-158.85181
1.811e-008,-111.35087,-134.03915
1.8125e-008,-111.08167,-109.1062
1.814e-008,-110.87517,-84.053894
1.8155e-008,-110.72842,-58.88113
1.817e-008,-110.63833,-33.580105
1.8185e-008,-110.60217,-8.1446495
1.82e-008,-110.61698,17.44051
1.8215e-008,-110.67992,43.183224
1.823e-008,-110.78779,69.102409
1.8245e-008,-110.93646,95.212769
1.826e-008,-111.12173,121.53146
1.8275e-008,-111.33778,148.07523
1.829e-008,-111.57842,174.85553
1.8305e-008,-111.83553,-158.11763
1.832e-008,-112.10082,-130.84628
1.8335e-008,-112.36359,-103.34283
1.835e-008,-112.61391,-75.63797
1.8365e-008,-112.84123,-47.777817
1.838e-008,-113.03668,-19.832207
1.8395e-008,-113.19315,8.1174898
1.841e-008,-113.30612,35.971214
1.8425e-008,-113.37613,63.631397
1.844e-008,-113.40583,90.998528
1.8455e-008,-113.40053,117.99448
1.847e-008,-113.3674,144.55084
1.8485e-008,-113.31425,170.62033
1.85e-008,-113.24766,-163.82706
1.8515e-008,-113.17381,-138.80513
1.853e-008,-113.0958,-114.31848
1.8545e-008,-113.0164,-90.357491
1.856e-008,-112.93475,-66.909454
1.8575e-008,-112.84979,-43.948925
1.859e-008,-112.75825,-21.445713
1.8605e-008,-112.65598,0.64032066
1.862e-008,-112.53862,22.357754
1.8635e-008,-112.40237,43.761147
1.865e-008,-112.24376,64.916534
1.8665e-008,-112.06092,85.887794
1.868e-008,-111.8534,106.74851
1.8695e-008,-111.62274,127.56
1.871e-008,-111.37271,148.38264
1.8725e-008,-111.10655,169.26974
1.874e-008,-110.83023,-169.74503
1.8755e-008,-110.54869,-148.62843
1.877e-008,-110.26785,-127.36285
1.8785e-008,-109.99215,-105.93872
1.88e-008,-109.72621,-84.351891
1.8815e-008,-109.47382,-62.605755
1.883e-008,-109.23779,-40.702534
1.8845e-008,-109.02044,-18.652348
1.886e-008,-108.82295,3.5370784
1.8875e-008,-108.64662,25.862993
1.889e-008,-108.4917,48.312962
1.8905e-008,-108.35858,70.880363
1.892e-008,-108.24646,93.560417
1.8935e-008,-108.15488,116.35007
1.895e-008,-108.08257,139.24516
1.8965e-008,-108.02867,162.24187
1.898e-008,-107.99144,-174.65591
1.8995e-008,-107.96928,-151.4532
1.901e-008,-107.96055,-128.14484
1.9025e-008,-107.96307,-104.73106
1.904e-008,-107.97521,-81.206985
1.9055e-008,-107.99447,-57.574581
1.907e-008,-108.01883,-33.830578
1.9085e-008,-108.04623,-9.9712172
1.91e-008,-108.07432,14.000565
1.9115e-008,-108.10095,38.08416
1.913e-008,-108.12418,62.275051
1.9145e-008,-108.14218,86.568764
1.916e-008,-108.15353,110.95559
1.9175e-008,-108.15654,135.42651
1.919e-008,-108.15051,159.96741
1.9205e-008,-108.1349,-175.43661
1.922e-008,-108.10954,-150.80309
1.9235e-008,-108.07475,-126.15073
1.925e-008,-108.0317,-101.49784
1.9265e-008,-107.98148,-76.864761
1.928e-008,-107.92561,-52.270416
1.9295e-008,-107.86632,-27.733934
1.931e-008,-107.80545,-3.2746158
1.9325e-008,-107.74561,21.093019
1.934e-008,-107.68896,45.353073
1.9355e-008,-107.63767,69.489113
1.937e-008,-107.59393,93.488052
1.9385e-008,-107.55949,117.33775
1.94e-008,-107.53577,141.02545
1.9415e-008,-107.52405,164.53868
1.943e-008,-107.52477,-172.13446
1.9445e-008,-107.5381,-149.00359
1.946e-008,-107.56345,-126.08356
1.9475e-008,-107.59966,-103.38284
1.949e-008,-107.64457,-80.91024
1.9505e-008,-107.69564,-58.674065
1.952e-008,-107.74918,-36.678089
1.9535e-008,-107.80093,-14.922348
1.955e-008,-107.84609,6.5999503
1.9565e-008,-107.8792,27.902447
1.958e-008,-107.89462,49.007324
1.9595e-008,-107.88717,69.948662
1.961e-008,-107.8527,90.765747
1.9625e-008,-107.78775,111.5084
1.964e-008,-107.69067,132.23041
1.9655e-008,-107.56158,152.98802
1.967e-008,-107.40254,173.83313
1.9685e-008,-107.21684,-165.18605
1.97e-008,-107.00937,-144.03059
1.9715e-008,-106.78556,-122.66995
1.973e-008,-106.55106,-101.08622
1.9745e-008,-106.31152,-79.267273
1.976e-008,-106.07237,-57.210949
1.9775e-008,-105.83808,-34.920612
1.979e-008,-105.61292,-12.403194
1.9805e-008,-105.40013,10.328667
1.982e-008,-105.20258,33.261784
1.9835e-008,-105.02223,56.381504
1.985e-008,-104.86092,79.671761
1.9865e-008,-104.71974,103.11748
1.988e-008,-104.59963,126.70221
1.9895e-008,-104.50111,150.41046
1.991e-008,-104.42458,174.22684
1.9925e-008,-104.37012,-161.86484
1.994e-008,-104.33778,-137.87857
1.9955e-008,-104.32745,-113.83015
1.997e-008,-104.33905,-89.735023
1.9985e-008,-104.37225,-65.608208
2e-008,-104.42693,-41.4655
END

