!CSV A.01.01
!Keysight Technologies,N5227B,US58420762,A.13.80.08
!Date: Monday, November 20, 2023 16:59:20
!Source: Standard

BEGIN CH1_DATA
Time(s),S21(DB),S21(DEG)
5e-009,-111.90218,-7.0451469
5.015e-009,-111.63567,15.729741
5.03e-009,-111.51264,38.847221
5.045e-009,-111.53436,62.254314
5.06e-009,-111.70478,85.921074
5.075e-009,-112.03262,109.83589
5.09e-009,-112.53185,134.00859
5.105e-009,-113.22392,158.47203
5.12e-009,-114.1414,-176.70004
5.135e-009,-115.33453,-151.3681
5.15e-009,-116.88348,-125.25097
5.165e-009,-118.92317,-97.742126
5.18e-009,-121.69205,-67.291016
5.195e-009,-125.56768,-28.959131
5.21e-009,-129.78247,34.132061
5.225e-009,-127.84534,112.25227
5.24e-009,-123.57549,159.08147
5.255e-009,-120.48045,-167.60188
5.27e-009,-118.2882,-138.67543
5.285e-009,-116.69341,-111.55064
5.3e-009,-115.5251,-85.294281
5.315e-009,-114.68701,-59.486713
5.33e-009,-114.12338,-33.907288
5.345e-009,-113.80299,-8.4130917
5.36e-009,-113.71069,17.104235
5.375e-009,-113.84395,42.751144
5.39e-009,-114.21252,68.653702
5.405e-009,-114.83938,94.9963
5.42e-009,-115.76479,122.0744
5.435e-009,-117.05119,150.43243
5.45e-009,-118.78754,-178.81993
5.465e-009,-121.04187,-143.19128
5.48e-009,-123.50584,-97.334663
5.495e-009,-124.32413,-38.165062
5.51e-009,-122.16238,16.892628
5.525e-009,-119.24992,58.093525
5.54e-009,-116.75429,91.301765
5.555e-009,-114.75305,120.6892
5.57e-009,-113.15247,148.09267
5.585e-009,-111.86813,174.34271
5.6e-009,-110.83978,-160.14705
5.615e-009,-110.02641,-135.1582
5.63e-009,-109.39984,-110.56727
5.645e-009,-108.94119,-86.311333
5.66e-009,-108.63763,-62.358479
5.675e-009,-108.48153,-38.705509
5.69e-009,-108.46861,-15.370088
5.705e-009,-108.59801,7.6050401
5.72e-009,-108.87137,30.148985
5.735e-009,-109.29204,52.152523
5.75e-009,-109.86414,73.453621
5.765e-009,-110.58935,93.81089
5.78e-009,-111.46095,112.87432
5.795e-009,-112.44987,130.15303
5.81e-009,-113.4775,145.05112
5.825e-009,-114.37883,157.10435
5.84e-009,-114.90308,166.61998
5.855e-009,-114.84658,175.26421
5.87e-009,-114.24345,-174.66995
5.885e-009,-113.33073,-161.84056
5.9e-009,-112.34692,-146.19456
5.915e-009,-111.43642,-128.26674
5.93e-009,-110.66602,-108.62699
5.945e-009,-110.0612,-87.720741
5.96e-009,-109.6307,-65.851685
5.975e-009,-109.37708,-43.21648
5.99e-009,-109.30344,-19.92675
6.005e-009,-109.41566,3.9706502
6.02e-009,-109.72459,28.492157
6.035e-009,-110.24734,53.729431
6.05e-009,-111.00917,79.879524
6.065e-009,-112.04353,107.32211
6.08e-009,-113.38719,136.77249
6.095e-009,-115.04871,169.58958
6.11e-009,-116.87605,-151.83519
6.125e-009,-118.20208,-105.16303
6.14e-009,-117.92924,-54.312164
6.155e-009,-116.21146,-8.960598
6.17e-009,-114.16366,28.566908
6.185e-009,-112.33565,60.905788
6.2e-009,-110.83511,90.268555
6.215e-009,-109.64586,117.88282
6.23e-009,-108.73344,144.40305
6.245e-009,-108.06931,170.18755
6.26e-009,-107.63478,-164.56197
6.275e-009,-107.42113,-139.73511
6.29e-009,-107.42915,-115.28162
6.305e-009,-107.67006,-91.202599
6.32e-009,-108.16777,-67.553551
6.335e-009,-108.96406,-44.472282
6.35e-009,-110.12878,-22.250334
6.365e-009,-111.77866,-1.5287129
6.38e-009,-114.10773,16.115131
6.395e-009,-117.35693,26.060682
6.41e-009,-120.6693,15.406662
6.425e-009,-119.18988,-8.2744141
6.44e-009,-115.21474,-7.6935492
6.455e-009,-112.05467,6.6725116
6.47e-009,-109.73026,26.094124
6.485e-009,-108.00527,47.762966
6.5e-009,-106.73073,70.655266
6.515e-009,-105.82217,94.351074
6.53e-009,-105.23581,118.68317
6.545e-009,-104.95501,143.6306
6.56e-009,-104.98499,169.29524
6.575e-009,-105.35319,-164.061
6.59e-009,-106.1107,-135.88553
6.605e-009,-107.32764,-105.00701
6.62e-009,-109.02574,-68.831566
6.635e-009,-110.76817,-22.358019
6.65e-009,-110.74475,35.222527
6.665e-009,-108.14931,87.498177
6.68e-009,-104.97247,127.47688
6.695e-009,-102.17822,160.23273
6.71e-009,-99.846603,-170.60571
6.725e-009,-97.902176,-143.37154
6.74e-009,-96.272141,-117.28551
6.755e-009,-94.903961,-91.958229
6.77e-009,-93.762466,-67.186783
6.785e-009,-92.825218,-42.869034
6.8e-009,-92.079544,-18.965443
6.815e-009,-91.520699,4.5154529
6.83e-009,-91.151237,27.516401
6.845e-009,-90.980789,49.919392
6.86e-009,-91.026321,71.51368
6.875e-009,-91.311279,91.931961
6.89e-009,-91.859161,110.52364
6.905e-009,-92.665054,126.12463
6.92e-009,-93.59388,136.80919
6.935e-009,-94.130875,140.66771
6.95e-009,-93.382576,140.06554
6.965e-009,-91.234169,142.77225
6.98e-009,-88.547554,152.32893
6.995e-009,-85.919594,167.13805
7.01e-009,-83.521729,-174.84618
7.025e-009,-81.363754,-154.90906
7.04e-009,-79.416748,-133.77682
7.055e-009,-77.648376,-111.8657
7.07e-009,-76.030922,-89.424362
7.085e-009,-74.54216,-66.608208
7.1e-009,-73.16449,-43.518402
7.115e-009,-71.883957,-20.223265
7.13e-009,-70.689384,3.2296095
7.145e-009,-69.571716,26.806192
7.16e-009,-68.523537,50.481525
7.175e-009,-67.538696,74.236961
7.19e-009,-66.612045,98.058342
7.205e-009,-65.739235,121.9347
7.22e-009,-64.91655,145.85748
7.235e-009,-64.1408,169.81985
7.25e-009,-63.409222,-166.18356
7.265e-009,-62.71941,-142.15714
7.28e-009,-62.06926,-118.10444
7.295e-009,-61.456905,-94.028343
7.31e-009,-60.880711,-69.931236
7.325e-009,-60.339214,-45.815056
7.34e-009,-59.83112,-21.681372
7.355e-009,-59.355259,2.4685035
7.37e-009,-58.910595,26.633532
7.385e-009,-58.496193,50.812878
7.4e-009,-58.111206,75.005867
7.415e-009,-57.754883,99.212021
7.43e-009,-57.426537,123.43098
7.445e-009,-57.125553,147.66254
7.46e-009,-56.851379,171.90656
7.475e-009,-56.603508,-163.83694
7.49e-009,-56.381496,-139.56784
7.505e-009,-56.184929,-115.28594
7.52e-009,-56.013447,-90.990921
7.535e-009,-55.866722,-66.682373
7.55e-009,-55.744465,-42.359779
7.565e-009,-55.646412,-18.022535
7.58e-009,-55.572327,6.3301058
7.595e-009,-55.522015,30.698969
7.61e-009,-55.495285,55.085014
7.625e-009,-55.491982,79.489326
7.64e-009,-55.511959,103.91313
7.655e-009,-55.555099,128.35779
7.67e-009,-55.621284,152.82486
7.685e-009,-55.710423,177.31601
7.7e-009,-55.822411,-158.16684
7.715e-009,-55.957169,-133.62163
7.73e-009,-56.114601,-109.04604
7.745e-009,-56.294624,-84.437508
7.76e-009,-56.497128,-59.793232
7.775e-009,-56.721992,-35.110123
7.79e-009,-56.969078,-10.384809
7.805e-009,-57.238205,14.386419
7.82e-009,-57.52916,39.207596
7.835e-009,-57.841667,64.083092
7.85e-009,-58.175388,89.017624
7.865e-009,-58.529896,114.01628
7.88e-009,-58.904655,139.08446
7.895e-009,-59.299023,164.22787
7.91e-009,-59.712193,-170.54759
7.925e-009,-60.143192,-145.23581
7.94e-009,-60.590839,-119.83073
7.955e-009,-61.053738,-94.326469
7.97e-009,-61.53022,-68.717575
7.985e-009,-62.018349,-42.999371
8e-009,-62.515888,-17.168324
8.015e-009,-63.020309,8.7774153
8.03e-009,-63.528793,34.837528
8.045e-009,-64.038284,61.008911
8.06e-009,-64.545532,87.285065
8.075e-009,-65.047226,113.65568
8.09e-009,-65.540077,140.10609
8.105e-009,-66.021019,166.61736
8.12e-009,-66.48735,-166.83368
8.135e-009,-66.936913,-140.2738
8.15e-009,-67.36821,-113.73249
8.165e-009,-67.780563,-87.2407
8.18e-009,-68.174088,-60.829494
8.195e-009,-68.54969,-34.528545
8.21e-009,-68.908997,-8.3649254
8.225e-009,-69.254196,17.637966
8.24e-009,-69.58786,43.461044
8.255e-009,-69.912819,69.089867
8.27e-009,-70.231964,94.514587
8.285e-009,-70.548126,119.72976
8.3e-009,-70.863976,144.73384
8.315e-009,-71.181961,169.52869
8.33e-009,-71.504288,-165.88098
8.345e-009,-71.83287,-141.48802
8.36e-009,-72.169403,-117.28342
8.375e-009,-72.515343,-93.256607
8.39e-009,-72.871986,-69.395805
8.405e-009,-73.240494,-45.688305
8.42e-009,-73.621956,-22.120661
8.435e-009,-74.017418,1.3211017
8.45e-009,-74.427971,24.651323
8.465e-009,-74.854759,47.884624
8.48e-009,-75.299049,71.035706
8.495e-009,-75.76223,94.119293
8.51e-009,-76.245895,117.15004
8.525e-009,-76.751831,140.14252
8.54e-009,-77.282059,163.11111
8.555e-009,-77.838852,-173.92989
8.57e-009,-78.424774,-150.96616
8.585e-009,-79.042694,-127.9832
8.6e-009,-79.695801,-104.96604
8.615e-009,-80.38768,-81.89888
8.63e-009,-81.122322,-58.764359
8.645e-009,-81.90419,-35.542767
8.66e-009,-82.738304,-12.210821
8.675e-009,-83.630318,11.260017
8.69e-009,-84.586601,34.906097
8.705e-009,-85.614296,58.775158
8.72e-009,-86.72139,82.931587
8.735e-009,-87.916534,107.46471
8.75e-009,-89.208527,132.50092
8.765e-009,-90.604889,158.22173
8.78e-009,-92.108414,-175.11
8.795e-009,-93.709221,-147.11917
8.81e-009,-95.368034,-117.30245
8.825e-009,-96.986572,-85.104156
8.84e-009,-98.377075,-50.254639
8.855e-009,-99.293762,-13.441243
8.87e-009,-99.594101,23.408579
8.885e-009,-99.37809,58.216358
8.9e-009,-98.885208,90.045456
8.915e-009,-98.31665,119.03177
8.93e-009,-97.781143,145.70032
8.945e-009,-97.320419,170.55919
8.96e-009,-96.940651,-166.00525
8.975e-009,-96.631165,-143.71609
8.99e-009,-96.373726,-122.3694
9.005e-009,-96.147324,-101.79999
9.02e-009,-95.930862,-81.856636
9.035e-009,-95.705536,-62.387005
9.05e-009,-95.456856,-43.232098
9.065e-009,-95.176102,-24.230627
9.08e-009,-94.861023,-5.2293959
9.095e-009,-94.515198,13.90488
9.11e-009,-94.146576,33.276737
9.125e-009,-93.765556,52.957409
9.14e-009,-93.383148,72.98793
9.155e-009,-93.009682,93.383392
9.17e-009,-92.653976,114.14066
9.185e-009,-92.323036,135.24458
9.2e-009,-92.02211,156.67317
9.215e-009,-91.754837,178.40189
9.23e-009,-91.523552,-159.59444
9.245e-009,-91.329468,-137.33928
9.26e-009,-91.172981,-114.85413
9.275e-009,-91.053818,-92.158295
9.29e-009,-90.971176,-69.268074
9.305e-009,-90.923836,-46.197559
9.32e-009,-90.910278,-22.958817
9.335e-009,-90.928673,0.4381777
9.35e-009,-90.976967,23.985014
9.365e-009,-91.052864,47.674286
9.38e-009,-91.153946,71.499763
9.395e-009,-91.27755,95.455559
9.41e-009,-91.420883,119.53606
9.425e-009,-91.581039,143.73532
9.44e-009,-91.75502,168.04675
9.455e-009,-91.939758,-167.53682
9.47e-009,-92.132217,-143.02415
9.485e-009,-92.329498,-118.42519
9.5e-009,-92.528839,-93.751427
9.515e-009,-92.727753,-69.016068
9.53e-009,-92.924126,-44.233322
9.545e-009,-93.116325,-19.418816
9.56e-009,-93.303261,5.411417
9.575e-009,-93.484413,30.241234
9.59e-009,-93.659897,55.054928
9.605e-009,-93.830437,79.837936
9.62e-009,-93.997444,104.57712
9.635e-009,-94.162788,129.26141
9.65e-009,-94.328896,153.88208
9.665e-009,-94.498627,178.43288
9.68e-009,-94.675171,-157.0907
9.695e-009,-94.862061,-132.69005
9.71e-009,-95.063065,-108.36581
9.725e-009,-95.282227,-84.115952
9.74e-009,-95.523758,-59.93787
9.755e-009,-95.792168,-35.828152
9.77e-009,-96.092201,-11.782101
9.785e-009,-96.429062,12.204394
9.8e-009,-96.808334,36.135838
9.815e-009,-97.236305,60.016308
9.83e-009,-97.720085,83.849274
9.845e-009,-98.268036,107.6376
9.86e-009,-98.890144,131.38228
9.875e-009,-99.598679,155.08331
9.89e-009,-100.40932,178.73839
9.905e-009,-101.34276,-157.65924
9.92e-009,-102.42711,-134.12102
9.935e-009,-103.70306,-110.66882
9.95e-009,-105.2323,-87.344101
9.965e-009,-107.11606,-64.230392
9.98e-009,-109.53892,-41.519062
9.995e-009,-112.89675,-19.758446
1.001e-008,-118.3214,-1.3623321
1.0025e-008,-131.08868,-25.238518
1.004e-008,-120.84278,-107.35239
1.0055e-008,-114.5329,-91.619438
1.007e-008,-111.00708,-70.391319
1.0085e-008,-108.6115,-47.897659
1.01e-008,-106.83631,-24.92025
1.0115e-008,-105.45855,-1.7113928
1.013e-008,-104.36051,21.622185
1.0145e-008,-103.47276,45.027706
1.016e-008,-102.75053,68.474396
1.0175e-008,-102.16336,91.943169
1.019e-008,-101.68941,115.42102
1.0205e-008,-101.31237,138.89803
1.022e-008,-101.01965,162.36636
1.0235e-008,-100.80122,-174.18028
1.025e-008,-100.64862,-150.74805
1.0265e-008,-100.55476,-127.342
1.028e-008,-100.51337,-103.96687
1.0295e-008,-100.51858,-80.626938
1.031e-008,-100.56498,-57.326168
1.0325e-008,-100.64732,-34.067101
1.034e-008,-100.76043,-10.852462
1.0355e-008,-100.89901,12.316726
1.037e-008,-101.05775,35.441536
1.0385e-008,-101.23132,58.5238
1.04e-008,-101.41418,81.567657
1.0415e-008,-101.60091,104.58004
1.043e-008,-101.78612,127.56952
1.0445e-008,-101.96478,150.54826
1.046e-008,-102.1321,173.52913
1.0475e-008,-102.28401,-163.47289
1.049e-008,-102.41722,-140.44203
1.0505e-008,-102.52915,-117.36344
1.052e-008,-102.61845,-94.222992
1.0535e-008,-102.68473,-71.009399
1.055e-008,-102.72855,-47.715267
1.0565e-008,-102.75158,-24.335373
1.058e-008,-102.75626,-0.87084007
1.0595e-008,-102.74579,22.674744
1.061e-008,-102.72386,46.293781
1.0625e-008,-102.69461,69.97554
1.064e-008,-102.66247,93.706017
1.0655e-008,-102.63192,117.47053
1.067e-008,-102.60744,141.2523
1.0685e-008,-102.59363,165.03429
1.07e-008,-102.59464,-171.20148
1.0715e-008,-102.61471,-147.47423
1.073e-008,-102.65759,-123.80222
1.0745e-008,-102.72697,-100.20573
1.076e-008,-102.8261,-76.706123
1.0775e-008,-102.95803,-53.326191
1.079e-008,-103.1253,-30.090973
1.0805e-008,-103.33016,-7.0291843
1.082e-008,-103.57404,15.826362
1.0835e-008,-103.85789,38.438194
1.085e-008,-104.18149,60.763119
1.0865e-008,-104.54314,82.750977
1.088e-008,-104.93922,104.34605
1.0895e-008,-105.3634,125.48704
1.091e-008,-105.80565,146.11189
1.0925e-008,-106.25128,166.16432
1.094e-008,-106.68058,-174.39124
1.0955e-008,-107.06847,-155.55267
1.097e-008,-107.38725,-137.25867
1.0985e-008,-107.61024,-119.37391
1.1e-008,-107.71814,-101.68944
1.1015e-008,-107.70383,-83.952484
1.103e-008,-107.57526,-65.911575
1.1045e-008,-107.35236,-47.362858
1.106e-008,-107.0619,-28.172838
1.1075e-008,-106.73138,-8.2836132
1.109e-008,-106.38502,12.305856
1.1105e-008,-106.04219,33.561188
1.112e-008,-105.71682,55.429962
1.1135e-008,-105.41824,77.853386
1.115e-008,-105.15215,100.77518
1.1165e-008,-104.92152,124.14416
1.118e-008,-104.72721,147.91524
1.1195e-008,-104.56871,172.05092
1.121e-008,-104.44434,-163.48442
1.1225e-008,-104.35182,-138.71895
1.124e-008,-104.28825,-113.68015
1.1255e-008,-104.25027,-88.39254
1.127e-008,-104.23433,-62.881927
1.1285e-008,-104.23695,-37.173641
1.13e-008,-104.25465,-11.29461
1.1315e-008,-104.28426,14.726696
1.133e-008,-104.32294,40.858772
1.1345e-008,-104.36851,67.070488
1.136e-008,-104.41921,93.328262
1.1375e-008,-104.47424,119.59842
1.139e-008,-104.53349,145.8493
1.1405e-008,-104.59754,172.04994
1.142e-008,-104.66765,-161.82697
1.1435e-008,-104.74563,-135.80675
1.145e-008,-104.83355,-109.90789
1.1465e-008,-104.93393,-84.146439
1.148e-008,-105.04923,-58.534599
1.1495e-008,-105.1819,-33.076904
1.151e-008,-105.33438,-7.7768755
1.1525e-008,-105.50891,17.367004
1.154e-008,-105.70723,42.359688
1.1555e-008,-105.93146,67.209984
1.157e-008,-106.18296,91.932274
1.1585e-008,-106.46301,116.54096
1.16e-008,-106.77267,141.05797
1.1615e-008,-107.11308,165.51025
1.163e-008,-107.48494,-170.07329
1.1645e-008,-107.889,-145.65332
1.166e-008,-108.32568,-121.18398
1.1675e-008,-108.79559,-96.610863
1.169e-008,-109.29837,-71.867111
1.1705e-008,-109.83337,-46.874054
1.172e-008,-110.39819,-21.534603
1.1735e-008,-110.98861,4.2634816
1.175e-008,-111.59538,30.64847
1.1765e-008,-112.2038,57.759789
1.178e-008,-112.78951,85.735336
1.1795e-008,-113.31706,114.67399
1.181e-008,-113.7394,144.58977
1.1825e-008,-114.00389,175.34555
1.184e-008,-114.06679,-153.37395
1.1855e-008,-113.91029,-122.02118
1.187e-008,-113.55073,-91.064072
1.1885e-008,-113.03247,-60.849884
1.19e-008,-112.41106,-31.553583
1.1915e-008,-111.73843,-3.1949835
1.193e-008,-111.05466,24.298286
1.1945e-008,-110.38822,51.040134
1.196e-008,-109.75739,77.149429
1.1975e-008,-109.17345,102.73235
1.199e-008,-108.64239,127.88083
1.2005e-008,-108.16789,152.66412
1.202e-008,-107.75131,177.13983
1.2035e-008,-107.39317,-158.65079
1.205e-008,-107.09319,-134.67734
1.2065e-008,-106.85071,-110.91922
1.208e-008,-106.66493,-87.365036
1.2095e-008,-106.53485,-64.00856
1.211e-008,-106.45914,-40.852314
1.2125e-008,-106.43639,-17.902369
1.214e-008,-106.4649,4.8276963
1.2155e-008,-106.54236,27.318888
1.217e-008,-106.66572,49.549343
1.2185e-008,-106.83112,71.490807
1.22e-008,-107.03325,93.112198
1.2215e-008,-107.26501,114.38051
1.223e-008,-107.5174,135.26639
1.2245e-008,-107.7786,155.74516
1.226e-008,-108.03437,175.80774
1.2275e-008,-108.26824,-164.53329
1.229e-008,-108.46271,-145.23303
1.2305e-008,-108.60106,-126.20765
1.232e-008,-108.66963,-107.33807
1.2335e-008,-108.66101,-88.477692
1.235e-008,-108.57497,-69.470558
1.2365e-008,-108.41823,-50.173302
1.238e-008,-108.20306,-30.470028
1.2395e-008,-107.94451,-10.285467
1.241e-008,-107.65852,10.4197
1.2425e-008,-107.35915,31.652884
1.244e-008,-107.05828,53.400139
1.2455e-008,-106.76498,75.632683
1.247e-008,-106.48561,98.313538
1.2485e-008,-106.22463,121.4037
1.25e-008,-105.98445,144.86346
1.2515e-008,-105.76601,168.65508
1.253e-008,-105.56937,-167.25923
1.2545e-008,-105.39384,-142.91515
1.256e-008,-105.23831,-118.34641
1.2575e-008,-105.10134,-93.586609
1.259e-008,-104.98152,-68.667999
1.2605e-008,-104.87735,-43.623459
1.262e-008,-104.78784,-18.484135
1.2635e-008,-104.71192,6.7194166
1.265e-008,-104.64911,31.9552
1.2665e-008,-104.59911,57.194908
1.268e-008,-104.56218,82.410057
1.2695e-008,-104.53881,107.57364
1.271e-008,-104.52977,132.66096
1.2725e-008,-104.53599,157.64844
1.274e-008,-104.55872,-177.48466
1.2755e-008,-104.59917,-152.75777
1.277e-008,-104.65861,-128.1888
1.2785e-008,-104.73801,-103.79349
1.28e-008,-104.83842,-79.586571
1.2815e-008,-104.96065,-55.581688
1.283e-008,-105.10506,-31.791246
1.2845e-008,-105.2716,-8.2267199
1.286e-008,-105.46011,15.100749
1.2875e-008,-105.66973,38.18161
1.289e-008,-105.89903,61.00658
1.2905e-008,-106.14625,83.56926
1.292e-008,-106.409,105.86482
1.2935e-008,-106.68416,127.8911
1.295e-008,-106.96842,149.65105
1.2965e-008,-107.25795,171.15192
1.298e-008,-107.5488,-167.59377
1.2995e-008,-107.83699,-146.56587
1.301e-008,-108.11896,-125.73837
1.3025e-008,-108.39181,-105.0783
1.304e-008,-108.65356,-84.549454
1.3055e-008,-108.90343,-64.111504
1.307e-008,-109.14187,-43.723339
1.3085e-008,-109.3707,-23.347008
1.31e-008,-109.5926,-2.9482708
1.3115e-008,-109.81127,17.501122
1.313e-008,-110.03096,38.023182
1.3145e-008,-110.25586,58.630016
1.316e-008,-110.4901,79.328827
1.3175e-008,-110.73738,100.12183
1.319e-008,-111.00061,121.00339
1.3205e-008,-111.28196,141.96724
1.322e-008,-111.58239,163.00423
1.3235e-008,-111.90208,-175.89296
1.325e-008,-112.23977,-154.73195
1.3265e-008,-112.59292,-133.51447
1.328e-008,-112.95806,-112.23826
1.3295e-008,-113.33046,-90.889969
1.331e-008,-113.70403,-69.447678
1.3325e-008,-114.0722,-47.877316
1.334e-008,-114.42786,-26.129599
1.3355e-008,-114.76331,-4.1470637
1.337e-008,-115.07127,18.140837
1.3385e-008,-115.34443,40.813408
1.34e-008,-115.57594,63.944908
1.3415e-008,-115.75857,87.607521
1.343e-008,-115.88557,111.85597
1.3445e-008,-115.95007,136.72266
1.346e-008,-115.94528,162.20305
1.3475e-008,-115.86475,-171.73283
1.349e-008,-115.7049,-145.15759
1.3505e-008,-115.46497,-118.16417
1.352e-008,-115.14837,-90.867188
1.3535e-008,-114.76282,-63.380981
1.355e-008,-114.32005,-35.805645
1.3565e-008,-113.83372,-8.2203197
1.358e-008,-113.31837,19.32036
1.3595e-008,-112.78806,46.79113
1.361e-008,-112.2547,74.185219
1.3625e-008,-111.72886,101.5117
1.364e-008,-111.21786,128.79323
1.3655e-008,-110.72704,156.0569
1.367e-008,-110.25993,-176.66656
1.3685e-008,-109.81791,-149.34247
1.37e-008,-109.40041,-121.94244
1.3715e-008,-109.00564,-94.435799
1.373e-008,-108.63032,-66.797798
1.3745e-008,-108.26995,-39.009361
1.376e-008,-107.91891,-11.05746
1.3775e-008,-107.57088,17.060659
1.379e-008,-107.21922,45.337635
1.3805e-008,-106.85693,73.755508
1.382e-008,-106.47785,102.28331
1.3835e-008,-106.07687,130.88072
1.385e-008,-105.65049,159.49831
1.3865e-008,-105.19705,-171.91724
1.388e-008,-104.71718,-143.42007
1.3895e-008,-104.21324,-115.05877
1.391e-008,-103.68929,-86.875801
1.3925e-008,-103.15042,-58.902744
1.394e-008,-102.6022,-31.161386
1.3955e-008,-102.05038,-3.6628747
1.397e-008,-101.5003,23.58947
1.3985e-008,-100.95683,50.599689
1.4e-008,-100.42418,77.377205
1.4015e-008,-99.905739,103.93466
1.403e-008,-99.404274,130.28635
1.4045e-008,-98.921982,156.44833
1.406e-008,-98.460396,-177.56345
1.4075e-008,-98.020615,-151.73302
1.409e-008,-97.603386,-126.04561
1.4105e-008,-97.209091,-100.48682
1.412e-008,-96.837852,-75.043365
1.4135e-008,-96.489632,-49.702999
1.415e-008,-96.164169,-24.454132
1.4165e-008,-95.861145,0.71323538
1.418e-008,-95.580093,25.809029
1.4195e-008,-95.320488,50.841629
1.421e-008,-95.081779,75.819214
1.4225e-008,-94.863335,100.74879
1.424e-008,-94.664543,125.63708
1.4255e-008,-94.484756,150.48991
1.427e-008,-94.323296,175.31284
1.4285e-008,-94.17952,-159.88943
1.43e-008,-94.052788,-135.11256
1.4315e-008,-93.942444,-110.35273
1.433e-008,-93.847885,-85.606628
1.4345e-008,-93.768478,-60.871437
1.436e-008,-93.703674,-36.14455
1.4375e-008,-93.652885,-11.424221
1.439e-008,-93.615631,13.291214
1.4405e-008,-93.591347,38.002678
1.442e-008,-93.579666,62.710953
1.4435e-008,-93.580078,87.416153
1.445e-008,-93.592278,112.11801
1.4465e-008,-93.615891,136.81625
1.448e-008,-93.65065,161.50951
1.4495e-008,-93.696274,-173.80327
1.451e-008,-93.752617,-149.12398
1.4525e-008,-93.819496,-124.45444
1.454e-008,-93.896812,-99.797073
1.4555e-008,-93.984489,-75.154175
1.457e-008,-94.08252,-50.528721
1.4585e-008,-94.190872,-25.923328
1.46e-008,-94.309639,-1.3413954
1.4615e-008,-94.438835,23.214293
1.463e-008,-94.578522,47.740154
1.4645e-008,-94.72879,72.233398
1.466e-008,-94.889656,96.690254
1.4675e-008,-95.061211,121.10808
1.469e-008,-95.243378,145.48326
1.4705e-008,-95.436172,169.81313
1.472e-008,-95.639404,-165.90536
1.4735e-008,-95.852928,-141.67471
1.475e-008,-96.076393,-117.49747
1.4765e-008,-96.30938,-93.375504
1.478e-008,-96.551331,-69.310509
1.4795e-008,-96.801559,-45.303734
1.481e-008,-97.059105,-21.355793
1.4825e-008,-97.322983,2.5332747
1.484e-008,-97.59185,26.364563
1.4855e-008,-97.864326,50.139542
1.487e-008,-98.138702,73.861542
1.4885e-008,-98.413162,97.533882
1.49e-008,-98.685654,121.16248
1.4915e-008,-98.954048,144.75328
1.493e-008,-99.216057,168.31496
1.4945e-008,-99.469322,-168.14397
1.496e-008,-99.711494,-144.6125
1.4975e-008,-99.940231,-121.08009
1.499e-008,-100.15344,-97.534607
1.5005e-008,-100.34904,-73.964638
1.502e-008,-100.52531,-50.359112
1.5035e-008,-100.68069,-26.707701
1.505e-008,-100.81422,-3.0023191
1.5065e-008,-100.92501,20.763477
1.508e-008,-101.0128,44.593372
1.5095e-008,-101.07765,68.487572
1.511e-008,-101.12009,92.444206
1.5125e-008,-101.14098,116.45735
1.514e-008,-101.14159,140.52014
1.5155e-008,-101.12345,164.62209
1.517e-008,-101.08852,-171.24904
1.5185e-008,-101.03893,-147.10585
1.52e-008,-100.97698,-122.96286
1.5215e-008,-100.90511,-98.833405
1.523e-008,-100.82571,-74.732216
1.5245e-008,-100.74138,-50.671196
1.526e-008,-100.65432,-26.664013
1.5275e-008,-100.56702,-2.7199509
1.529e-008,-100.48129,21.149403
1.5305e-008,-100.3992,44.936722
1.532e-008,-100.32218,68.634491
1.5335e-008,-100.25161,92.236633
1.535e-008,-100.18851,115.7389
1.5365e-008,-100.13364,139.1377
1.538e-008,-100.08739,162.4319
1.5395e-008,-100.04998,-174.37939
1.541e-008,-100.02126,-151.29442
1.5425e-008,-100.00087,-128.30974
1.544e-008,-99.988281,-105.42197
1.5455e-008,-99.982765,-82.623108
1.547e-008,-99.983414,-59.904781
1.5485e-008,-99.989296,-37.255608
1.55e-008,-99.999557,-14.662889
1.5515e-008,-100.01337,7.889472
1.553e-008,-100.02995,30.418829
1.5545e-008,-100.04865,52.945259
1.556e-008,-100.06932,75.489372
1.5575e-008,-100.09184,98.073624
1.559e-008,-100.11636,120.72119
1.5605e-008,-100.14339,143.45598
1.562e-008,-100.17362,166.30179
1.5635e-008,-100.20779,-170.71776
1.565e-008,-100.24692,-147.57951
1.5665e-008,-100.29184,-124.2618
1.568e-008,-100.34346,-100.7422
1.5695e-008,-100.40221,-77.000397
1.571e-008,-100.46839,-53.016979
1.5725e-008,-100.54163,-28.772554
1.574e-008,-100.62114,-4.251061
1.5755e-008,-100.70526,20.56341
1.577e-008,-100.79163,45.683048
1.5785e-008,-100.87685,71.116798
1.58e-008,-100.95681,96.867859
1.5815e-008,-101.02644,122.93321
1.583e-008,-101.08009,149.30022
1.5845e-008,-101.11186,175.9465
1.586e-008,-101.11595,-157.16261
1.5875e-008,-101.08741,-130.07217
1.589e-008,-101.02243,-102.83811
1.5905e-008,-100.91912,-75.522522
1.592e-008,-100.77776,-48.190849
1.5935e-008,-100.60063,-20.905245
1.595e-008,-100.39195,6.2769361
1.5965e-008,-100.15741,33.309486
1.598e-008,-99.90358,60.156612
1.5995e-008,-99.637276,86.794441
1.601e-008,-99.365181,113.20923
1.6025e-008,-99.093506,139.3963
1.604e-008,-98.827713,165.35765
1.6055e-008,-98.572556,-168.89963
1.607e-008,-98.331863,-143.36588
1.6085e-008,-98.108833,-118.02875
1.61e-008,-97.90593,-92.876022
1.6115e-008,-97.725113,-67.894714
1.613e-008,-97.567726,-43.072159
1.6145e-008,-97.434891,-18.396942
1.616e-008,-97.327171,6.142158
1.6175e-008,-97.245064,30.554998
1.619e-008,-97.188751,54.851105
1.6205e-008,-97.158218,79.038704
1.622e-008,-97.153397,103.12548
1.6235e-008,-97.174042,127.11845
1.625e-008,-97.219833,151.02443
1.6265e-008,-97.290398,174.84924
1.628e-008,-97.3853,-161.40109
1.6295e-008,-97.504051,-137.72112
1.631e-008,-97.646156,-114.10538
1.6325e-008,-97.811066,-90.548424
1.634e-008,-97.998329,-67.044586
1.6355e-008,-98.207329,-43.588268
1.637e-008,-98.437584,-20.173847
1.6385e-008,-98.688599,3.2051051
1.64e-008,-98.959999,26.554874
1.6415e-008,-99.251259,49.882484
1.643e-008,-99.562149,73.194946
1.6445e-008,-99.892349,96.500175
1.646e-008,-100.24165,119.80593
1.6475e-008,-100.61001,143.12109
1.649e-008,-100.99738,166.45393
1.6505e-008,-101.40396,-170.18611
1.652e-008,-101.82995,-146.78937
1.6535e-008,-102.27575,-123.34602
1.655e-008,-102.74184,-99.846649
1.6565e-008,-103.22893,-76.280327
1.658e-008,-103.73775,-52.63728
1.6595e-008,-104.2693,-28.906895
1.661e-008,-104.82467,-5.0779996
1.6625e-008,-105.40516,18.859612
1.664e-008,-106.01215,42.917301
1.6655e-008,-106.64739,67.107063
1.667e-008,-107.31264,91.440842
1.6685e-008,-108.01012,115.93148
1.67e-008,-108.74223,140.59351
1.6715e-008,-109.51176,165.44357
1.673e-008,-110.32215,-169.49908
1.6745e-008,-111.17708,-144.21114
1.676e-008,-112.08124,-118.66438
1.6775e-008,-113.03989,-92.819748
1.679e-008,-114.05975,-66.626732
1.6805e-008,-115.14835,-40.014877
1.682e-008,-116.3146,-12.883446
1.6835e-008,-117.5681,14.911381
1.685e-008,-118.91759,43.584858
1.6865e-008,-120.36676,73.462875
1.688e-008,-121.9038,105.02225
1.6895e-008,-123.47655,138.92921
1.691e-008,-124.94653,175.90979
1.6925e-008,-126.04839,-143.83923
1.694e-008,-126.47433,-101.65039
1.6955e-008,-126.14715,-60.318001
1.697e-008,-125.3129,-21.959431
1.6985e-008,-124.27767,13.082903
1.7e-008,-123.23441,45.412251
1.7015e-008,-122.26601,75.770538
1.703e-008,-121.39765,104.717
1.7045e-008,-120.63065,132.64456
1.706e-008,-119.95775,159.81429
1.7075e-008,-119.36882,-173.58812
1.709e-008,-118.8537,-147.4406
1.7105e-008,-118.40479,-121.64672
1.712e-008,-118.01339,-96.138496
1.7135e-008,-117.67349,-70.860023
1.715e-008,-117.37884,-45.764725
1.7165e-008,-117.12454,-20.809837
1.718e-008,-116.9059,4.0413666
1.7195e-008,-116.71896,28.823679
1.721e-008,-116.55968,53.572388
1.7225e-008,-116.42461,78.322098
1.724e-008,-116.31057,103.10664
1.7255e-008,-116.21419,127.95944
1.727e-008,-116.13197,152.9144
1.7285e-008,-116.06054,178.00182
1.73e-008,-115.99609,-156.74858
1.7315e-008,-115.93434,-131.30833
1.733e-008,-115.87115,-105.65916
1.7345e-008,-115.80133,-79.785591
1.736e-008,-115.71952,-53.682682
1.7375e-008,-115.62041,-27.352066
1.739e-008,-115.49877,-0.81204289
1.7405e-008,-115.34993,25.910072
1.742e-008,-115.16994,52.775299
1.7435e-008,-114.9572,79.734627
1.745e-008,-114.71133,106.73222
1.7465e-008,-114.43396,133.71271
1.748e-008,-114.12917,160.62064
1.7495e-008,-113.80219,-172.59065
1.751e-008,-113.45916,-145.96243
1.7525e-008,-113.10776,-119.52294
1.754e-008,-112.7551,-93.294357
1.7555e-008,-112.40816,-67.288223
1.757e-008,-112.07348,-41.510101
1.7585e-008,-111.75716,-15.960284
1.76e-008,-111.46417,9.3638144
1.7615e-008,-111.19904,34.466568
1.763e-008,-110.96574,59.352215
1.7645e-008,-110.76749,84.025009
1.766e-008,-110.60707,108.4884
1.7675e-008,-110.48693,132.74144
1.769e-008,-110.4091,156.78372
1.7705e-008,-110.37531,-179.39146
1.772e-008,-110.38701,-155.79228
1.7735e-008,-110.44538,-132.43219
1.775e-008,-110.55124,-109.32964
1.7765e-008,-110.70493,-86.508652
1.778e-008,-110.90619,-63.99897
1.7795e-008,-111.15398,-41.838852
1.781e-008,-111.44587,-20.072704
1.7825e-008,-111.77737,1.2465261
1.784e-008,-112.1419,22.060877
1.7855e-008,-112.52901,42.309799
1.787e-008,-112.92414,61.937447
1.7885e-008,-113.30708,80.909012
1.79e-008,-113.65327,99.220871
1.7915e-008,-113.93503,116.93249
1.793e-008,-114.12567,134.17233
1.7945e-008,-114.20544,151.14433
1.796e-008,-114.1673,168.09467
1.7975e-008,-114.01835,-174.72766
1.799e-008,-113.77858,-157.11993
1.8005e-008,-113.47511,-138.95062
1.802e-008,-113.13612,-120.16347
1.8035e-008,-112.78704,-100.75864
1.805e-008,-112.44836,-80.775101
1.8065e-008,-112.13564,-60.271782
1.808e-008,-111.86001,-39.310425
1.8095e-008,-111.62931,-17.953476
1.811e-008,-111.44843,3.7409902
1.8125e-008,-111.32117,25.722229
1.814e-008,-111.24991,47.94846
1.8155e-008,-111.23624,70.380821
1.817e-008,-111.2816,92.988495
1.8185e-008,-111.38697,115.74149
1.82e-008,-111.55367,138.61993
1.8215e-008,-111.78293,161.60078
1.823e-008,-112.07657,-175.33282
1.8245e-008,-112.43629,-152.19838
1.826e-008,-112.86456,-129.01067
1.8275e-008,-113.3646,-105.78506
1.829e-008,-113.94012,-82.536049
1.8305e-008,-114.59565,-59.278851
1.832e-008,-115.33707,-36.031601
1.8335e-008,-116.17194,-12.813912
1.835e-008,-117.10983,10.349788
1.8365e-008,-118.16296,33.425507
1.838e-008,-119.34716,56.374851
1.8395e-008,-120.68471,79.132301
1.841e-008,-122.20615,101.59695
1.8425e-008,-123.95528,123.62294
1.844e-008,-125.99831,144.9245
1.8455e-008,-128.43994,164.94563
1.847e-008,-131.44901,-177.58055
1.8485e-008,-135.26311,-166.09709
1.85e-008,-139.59489,-170.85039
1.8515e-008,-140.44708,163.68869
1.853e-008,-137.3632,156.56259
1.8545e-008,-134.65062,166.75449
1.856e-008,-132.75111,-176.74918
1.8575e-008,-131.42351,-157.78152
1.859e-008,-130.4881,-137.74159
1.8605e-008,-129.82391,-117.2511
1.862e-008,-129.35242,-96.626045
1.8635e-008,-129.00998,-76.05452
1.865e-008,-128.74857,-55.63765
1.8665e-008,-128.5239,-35.400627
1.868e-008,-128.29718,-15.335018
1.8695e-008,-128.03532,4.6475453
1.871e-008,-127.71429,24.669937
1.8725e-008,-127.31998,44.883198
1.874e-008,-126.84935,65.424408
1.8755e-008,-126.30882,86.416359
1.877e-008,-125.71081,107.9251
1.8785e-008,-125.07039,129.97188
1.88e-008,-124.4028,152.53358
1.8815e-008,-123.72154,175.56458
1.883e-008,-123.03913,-160.99771
1.8845e-008,-122.36538,-137.22583
1.886e-008,-121.70711,-113.18226
1.8875e-008,-121.07225,-88.940735
1.889e-008,-120.46591,-64.553894
1.8905e-008,-119.89243,-40.064007
1.892e-008,-119.35642,-15.515329
1.8935e-008,-118.86098,9.0557909
1.895e-008,-118.40894,33.626328
1.8965e-008,-118.00396,58.172832
1.898e-008,-117.64809,82.674179
1.8995e-008,-117.34381,107.12275
1.901e-008,-117.0939,131.50053
1.9025e-008,-116.89989,155.79381
1.904e-008,-116.76563,179.99727
1.9055e-008,-116.69287,-155.90721
1.907e-008,-116.68512,-131.92987
1.9085e-008,-116.74571,-108.08585
1.91e-008,-116.87909,-84.400002
1.9115e-008,-117.08884,-60.893806
1.913e-008,-117.38145,-37.603287
1.9145e-008,-117.76385,-14.575993
1.916e-008,-118.24372,8.1212387
1.9175e-008,-118.82981,30.405653
1.919e-008,-119.5331,52.136368
1.9205e-008,-120.36447,73.131126
1.922e-008,-121.33292,93.095818
1.9235e-008,-122.43678,111.60137
1.925e-008,-123.64771,128.01384
1.9265e-008,-124.86862,141.52582
1.928e-008,-125.87637,151.50676
1.9295e-008,-126.32758,158.56044
1.931e-008,-125.9986,165.24945
1.9325e-008,-125.04189,174.43379
1.934e-008,-123.80279,-172.86
1.9355e-008,-122.53858,-157.1122
1.937e-008,-121.36721,-139.12762
1.9385e-008,-120.32951,-119.59341
1.94e-008,-119.4296,-98.974915
1.9415e-008,-118.6609,-77.580322
1.943e-008,-118.01232,-55.624676
1.9445e-008,-117.47358,-33.238018
1.946e-008,-117.03545,-10.516603
1.9475e-008,-116.68999,12.479977
1.949e-008,-116.431,35.707985
1.9505e-008,-116.25325,59.143265
1.952e-008,-116.15253,82.770714
1.9535e-008,-116.1257,106.58832
1.955e-008,-116.1701,130.59734
1.9565e-008,-116.28383,154.81601
1.958e-008,-116.46509,179.26315
1.9595e-008,-116.71278,-156.02499
1.961e-008,-117.02504,-131.00529
1.9625e-008,-117.39967,-105.61965
1.964e-008,-117.83324,-79.790466
1.9655e-008,-118.31959,-53.426807
1.967e-008,-118.84894,-26.414055
1.9685e-008,-119.40466,1.3737345
1.97e-008,-119.96098,30.06382
1.9715e-008,-120.47953,59.754551
1.973e-008,-120.90998,90.459229
1.9745e-008,-121.19496,122.04506
1.976e-008,-121.28479,154.19112
1.9775e-008,-121.15556,-173.57011
1.979e-008,-120.81945,-141.7285
1.9805e-008,-120.31935,-110.65111
1.982e-008,-119.71011,-80.51564
1.9835e-008,-119.04343,-51.340889
1.985e-008,-118.35883,-23.03969
1.9865e-008,-117.68357,4.5187869
1.988e-008,-117.03436,31.468147
1.9895e-008,-116.42059,57.93964
1.991e-008,-115.84697,84.039337
1.9925e-008,-115.31545,109.85873
1.994e-008,-114.82565,135.47488
1.9955e-008,-114.37656,160.94885
1.997e-008,-113.96646,-173.6674
1.9985e-008,-113.59332,-148.33022
2e-008,-113.25477,-123.00555
END

