!CSV A.01.01
!Keysight Technologies,N5227B,US58420762,A.13.80.08
!Date: Tuesday, November 21, 2023 09:53:32
!Source: Standard

BEGIN CH1_DATA
Freq(Hz),S21(DB),S21(DEG)
3000000000,-63.718311,-0.18266317
3003000000,-63.780926,-12.890058
3006000000,-63.743176,-23.245043
3009000000,-63.930138,-35.460751
3012000000,-63.386986,-46.746223
3015000000,-63.060825,-59.341354
3018000000,-63.160252,-72.160828
3021000000,-63.266258,-85.805847
3024000000,-63.269501,-98.053833
3027000000,-62.811016,-111.40721
3030000000,-62.941296,-124.07412
3033000000,-62.861488,-137.0161
3036000000,-62.794556,-149.78844
3039000000,-63.463707,-161.27631
3042000000,-63.322811,-171.64972
3045000000,-62.923531,176.95009
3048000000,-62.880272,163.61177
3051000000,-62.727947,151.40866
3054000000,-62.64402,138.1754
3057000000,-62.585754,124.06111
3060000000,-62.559994,111.20895
3063000000,-62.766453,96.650925
3066000000,-62.637325,85.701607
3069000000,-62.792057,72.723221
3072000000,-63.019783,60.623039
3075000000,-63.10231,46.777229
3078000000,-63.079029,34.993149
3081000000,-63.282753,24.258671
3084000000,-63.025261,13.224168
3087000000,-62.76902,-0.0056425366
3090000000,-62.536373,-11.495654
3093000000,-62.720177,-24.255041
3096000000,-62.506176,-36.978027
3099000000,-62.565468,-51.022491
3102000000,-62.305988,-65.622337
3105000000,-62.606785,-77.522652
3108000000,-62.682495,-90.093651
3111000000,-62.940262,-102.02925
3114000000,-62.848156,-113.7748
3117000000,-62.875908,-126.85437
3120000000,-62.641296,-137.66745
3123000000,-62.459866,-151.55942
3126000000,-63.029949,-165.05846
3129000000,-62.68285,-177.4481
3132000000,-62.785191,170.61827
3135000000,-62.497467,158.4442
3138000000,-62.555889,145.76637
3141000000,-62.451138,134.67007
3144000000,-62.280334,122.41967
3147000000,-62.376507,108.354
3150000000,-62.531418,96.146416
3153000000,-62.212849,83.190964
3156000000,-62.076736,70.118591
3159000000,-62.144775,56.10767
3162000000,-62.388134,43.728302
3165000000,-62.46529,32.267605
3168000000,-62.283752,17.699038
3171000000,-62.24432,5.5818939
3174000000,-62.525864,-8.0742645
3177000000,-62.932709,-19.712673
3180000000,-62.51244,-30.921577
3183000000,-62.710999,-42.188019
3186000000,-62.518955,-54.345413
3189000000,-62.710445,-64.784279
3192000000,-62.204834,-80.601097
3195000000,-62.540901,-92.594276
3198000000,-62.058041,-104.5033
3201000000,-62.03286,-117.69086
3204000000,-61.548172,-130.93851
3207000000,-62.013794,-147.04462
3210000000,-62.00198,-159.25189
3213000000,-62.431061,-174.54665
3216000000,-62.913837,174.16466
3219000000,-63.025993,162.91354
3222000000,-63.080666,156.10254
3225000000,-62.582268,144.05058
3228000000,-62.245983,130.53902
3231000000,-62.272423,117.95076
3234000000,-61.776661,103.21862
3237000000,-62.069584,89.371513
3240000000,-61.947739,73.695435
3243000000,-62.418056,61.263432
3246000000,-62.741848,47.772228
3249000000,-62.909363,34.179462
3252000000,-62.960545,23.347504
3255000000,-62.99818,13.661129
3258000000,-63.118019,0.79221505
3261000000,-62.550922,-10.181651
3264000000,-62.458778,-25.235575
3267000000,-62.714672,-38.714722
3270000000,-62.360538,-52.543335
3273000000,-62.874229,-64.809555
3276000000,-62.71077,-76.55674
3279000000,-62.867878,-89.41568
3282000000,-63.276348,-103.23475
3285000000,-63.533203,-114.63326
3288000000,-63.406002,-122.22976
3291000000,-63.000957,-134.48209
3294000000,-63.075943,-147.8989
3297000000,-62.78413,-160.1275
3300000000,-62.877636,-175.1689
3303000000,-62.593327,169.82922
3306000000,-62.862625,159.1286
3309000000,-63.058952,144.50471
3312000000,-63.063259,129.71526
3315000000,-63.706623,116.55245
3318000000,-63.781612,109.67636
3321000000,-64.071129,96.740616
3324000000,-63.973392,85.230347
3327000000,-63.652328,77.179642
3330000000,-63.540012,63.976955
3333000000,-63.215569,51.011799
3336000000,-62.7388,36.574692
3339000000,-62.887245,23.745619
3342000000,-63.301991,10.132065
3345000000,-63.28664,-5.6344295
3348000000,-63.900101,-19.387638
3351000000,-64.051086,-32.027695
3354000000,-64.267868,-42.479488
3357000000,-63.731319,-54.715561
3360000000,-64.380653,-65.98838
3363000000,-64.838051,-78.656822
3366000000,-64.73481,-87.499306
3369000000,-64.203812,-96.865349
3372000000,-63.719082,-109.68763
3375000000,-63.717762,-124.32996
3378000000,-63.443844,-137.57439
3381000000,-63.452938,-153.70564
3384000000,-64.109634,-166.97964
3387000000,-64.478996,179.44487
3390000000,-64.59877,165.97922
3393000000,-64.742294,154.12849
3396000000,-64.828537,144.52031
3399000000,-65.165344,133.73712
3402000000,-64.915924,120.70973
3405000000,-64.810143,109.85506
3408000000,-64.710136,98.514755
3411000000,-64.564316,86.135643
3414000000,-64.414261,73.042336
3417000000,-64.784218,58.993225
3420000000,-65.050362,48.205101
3423000000,-64.994606,34.613823
3426000000,-64.796188,24.155991
3429000000,-64.852821,10.402952
3432000000,-64.905792,-2.1429741
3435000000,-65.231369,-14.311116
3438000000,-64.737854,-23.470985
3441000000,-64.912796,-36.522717
3444000000,-64.813622,-49.341034
3447000000,-64.330856,-63.561302
3450000000,-64.975792,-78.347481
3453000000,-65.021095,-92.799774
3456000000,-65.197372,-102.26365
3459000000,-65.223213,-115.0238
3462000000,-65.492554,-122.86115
3465000000,-65.512924,-136.00111
3468000000,-65.433014,-147.60735
3471000000,-65.417709,-157.6263
3474000000,-65.379295,-172.22864
3477000000,-64.815613,175.02985
3480000000,-64.780197,160.93416
3483000000,-65.490013,150.40627
3486000000,-65.293991,136.32336
3489000000,-65.333969,122.71348
3492000000,-65.275063,110.94468
3495000000,-65.131271,96.417496
3498000000,-65.51722,85.067253
3501000000,-65.730667,70.018852
3504000000,-66.11924,60.790318
3507000000,-66.532928,53.0784
3510000000,-66.182037,41.915916
3513000000,-66.34243,30.552946
3516000000,-65.372009,18.168831
3519000000,-64.963905,6.0969477
3522000000,-65.120728,-8.2734547
3525000000,-64.824524,-22.705605
3528000000,-65.111794,-38.367474
3531000000,-65.484337,-47.860611
3534000000,-65.991592,-61.790535
3537000000,-65.709267,-75.111794
3540000000,-65.499542,-91.908676
3543000000,-66.210472,-100.72767
3546000000,-66.2612,-112.26787
3549000000,-66.950806,-122.20869
3552000000,-67.194077,-130.9729
3555000000,-66.390617,-142.13989
3558000000,-65.88858,-153.16026
3561000000,-65.733566,-169.24669
3564000000,-65.94825,179.06538
3567000000,-65.726082,162.92212
3570000000,-66.067612,149.97676
3573000000,-66.129822,138.31836
3576000000,-66.02533,125.91671
3579000000,-65.922508,113.3927
3582000000,-66.453003,101.43362
3585000000,-65.860405,88.356323
3588000000,-66.198669,74.220222
3591000000,-66.06736,64.792732
3594000000,-66.535851,45.494392
3597000000,-67.273514,36.065708
3600000000,-67.189804,29.557596
3603000000,-67.121193,15.267804
3606000000,-67.198418,7.1099472
3609000000,-67.248878,-4.3461866
3612000000,-66.890236,-17.752842
3615000000,-67.315742,-32.046906
3618000000,-66.947052,-38.811939
3621000000,-67.350479,-53.581207
3624000000,-66.726372,-65.276573
3627000000,-66.695755,-79.12812
3630000000,-66.579651,-93.356796
3633000000,-66.985992,-110.58714
3636000000,-67.636421,-122.25118
3639000000,-68.000229,-133.16182
3642000000,-69.024834,-144.32922
3645000000,-68.269592,-149.04073
3648000000,-68.351082,-161.88499
3651000000,-68.225456,-176.59117
3654000000,-67.376198,171.68674
3657000000,-67.948822,161.60767
3660000000,-67.027786,149.30191
3663000000,-68.343391,136.64592
3666000000,-66.997986,128.20313
3669000000,-67.430008,112.55561
3672000000,-67.220924,99.534187
3675000000,-67.594795,82.99099
3678000000,-67.724464,69.263168
3681000000,-67.746521,62.090176
3684000000,-67.414589,52.552078
3687000000,-67.82077,33.476601
3690000000,-67.899101,19.750076
3693000000,-68.176712,12.717868
3696000000,-67.777771,1.2823738
3699000000,-68.490974,-8.5480509
3702000000,-68.33535,-21.938065
3705000000,-68.184181,-32.835888
3708000000,-68.836845,-41.614014
3711000000,-68.667191,-52.469891
3714000000,-68.479858,-65.284126
3717000000,-67.377571,-80.135544
3720000000,-67.231186,-90.548759
3723000000,-67.233063,-104.1465
3726000000,-67.431534,-116.98572
3729000000,-67.160782,-128.34734
3732000000,-67.697945,-143.14723
3735000000,-68.309647,-157.40128
3738000000,-67.633522,-166.4214
3741000000,-68.250046,-178.97748
3744000000,-68.649948,169.06219
3747000000,-68.94442,158.93336
3750000000,-68.33432,153.55502
3753000000,-68.909233,138.89305
3756000000,-68.226143,129.74477
3759000000,-68.195297,113.60242
3762000000,-67.480591,103.84791
3765000000,-67.451294,93.474243
3768000000,-67.100029,73.906036
3771000000,-67.164299,60.646294
3774000000,-67.424385,49.620464
3777000000,-68.107346,38.456982
3780000000,-67.816505,30.42407
3783000000,-67.889915,18.146185
3786000000,-67.446831,5.0257421
3789000000,-68.100456,-7.1798444
3792000000,-67.488312,-18.684141
3795000000,-68.019318,-30.49588
3798000000,-67.390648,-41.52412
3801000000,-67.27372,-55.346233
3804000000,-67.484093,-69.496674
3807000000,-67.206856,-78.705589
3810000000,-66.628929,-88.116615
3813000000,-66.331604,-104.79501
3816000000,-66.826836,-116.63583
3819000000,-66.625603,-129.49527
3822000000,-66.69146,-141.56714
3825000000,-67.46035,-155.95915
3828000000,-67.205635,-167.5161
3831000000,-66.525215,-179.61821
3834000000,-66.981796,171.05777
3837000000,-66.815536,162.79073
3840000000,-66.252739,147.5882
3843000000,-66.313438,139.41835
3846000000,-66.796349,121.49627
3849000000,-66.785057,106.77319
3852000000,-67.162689,93.970078
3855000000,-66.772079,83.161819
3858000000,-67.102913,76.058495
3861000000,-66.575722,62.172295
3864000000,-66.678047,49.160191
3867000000,-65.880066,38.416603
3870000000,-66.301163,25.814798
3873000000,-66.068527,12.234149
3876000000,-66.257805,-2.6591213
3879000000,-66.303551,-13.278747
3882000000,-66.056244,-25.299377
3885000000,-66.641876,-34.570965
3888000000,-66.529648,-47.817081
3891000000,-65.936394,-62.382626
3894000000,-66.745163,-72.484169
3897000000,-66.189766,-83.394417
3900000000,-65.882805,-97.86335
3903000000,-65.954926,-106.75927
3906000000,-65.599457,-123.75702
3909000000,-65.562904,-135.73877
3912000000,-65.540871,-154.13716
3915000000,-65.345726,-165.68297
3918000000,-65.418625,-173.39372
3921000000,-65.818878,173.53157
3924000000,-65.400848,161.18964
3927000000,-65.281319,149.64352
3930000000,-65.315414,139.36197
3933000000,-65.043762,121.88001
3936000000,-65.477264,111.77415
3939000000,-64.82338,99.362526
3942000000,-65.583321,86.557213
3945000000,-65.31012,74.462578
3948000000,-65.243256,61.761639
3951000000,-65.073456,52.122776
3954000000,-65.95108,36.081299
3957000000,-65.548973,29.32457
3960000000,-65.649551,13.760746
3963000000,-65.032074,5.1670084
3966000000,-64.827591,-7.346683
3969000000,-64.084076,-22.267826
3972000000,-64.031136,-35.295078
3975000000,-64.422218,-53.475266
3978000000,-64.939819,-67.29583
3981000000,-64.650009,-79.011566
3984000000,-65.574387,-94.745575
3987000000,-65.635933,-102.73065
3990000000,-65.599869,-110.25414
3993000000,-65.022865,-119.52878
3996000000,-64.757774,-133.5121
3999000000,-64.413048,-144.78897
4002000000,-64.277321,-157.13866
4005000000,-63.918915,-171.01027
4008000000,-64.198814,175.01617
4011000000,-64.126488,160.70152
4014000000,-64.313377,145.84087
4017000000,-64.054176,132.41615
4020000000,-64.447502,122.34542
4023000000,-64.181496,110.04452
4026000000,-64.507797,95.316483
4029000000,-64.80587,84.466789
4032000000,-64.680305,75.809898
4035000000,-64.811584,64.512268
4038000000,-64.608315,52.134571
4041000000,-64.330124,39.115635
4044000000,-64.230469,26.575005
4047000000,-64.265991,14.495453
4050000000,-63.861366,1.7051038
4053000000,-63.977386,-11.59372
4056000000,-63.905869,-30.014843
4059000000,-63.533474,-40.093414
4062000000,-63.962746,-51.24448
4065000000,-63.749115,-65.26503
4068000000,-63.437244,-76.667015
4071000000,-64.172142,-89.649231
4074000000,-64.242821,-102.1277
4077000000,-64.354996,-116.22365
4080000000,-63.975616,-125.67576
4083000000,-64.104515,-140.1993
4086000000,-64.021721,-148.93611
4089000000,-63.941025,-160.42094
4092000000,-63.540077,-174.50298
4095000000,-63.772682,172.18803
4098000000,-63.750519,156.45775
4101000000,-63.900917,146.34828
4104000000,-63.733509,134.92244
4107000000,-63.874672,122.51719
4110000000,-63.368126,108.99856
4113000000,-63.382652,94.810219
4116000000,-63.431091,80.069603
4119000000,-63.589733,67.251633
4122000000,-63.748417,55.320045
4125000000,-64.114464,44.985825
4128000000,-64.022858,30.736456
4131000000,-64.309258,21.898415
4134000000,-63.911453,10.432508
4137000000,-63.619053,2.7450848
4140000000,-63.534866,-13.471593
4143000000,-63.022633,-27.412085
4146000000,-62.698227,-42.70789
4149000000,-62.948811,-59.238327
4152000000,-63.284622,-72.224403
4155000000,-63.487614,-84.687401
4158000000,-63.97834,-96.809296
4161000000,-63.594311,-107.47919
4164000000,-63.88298,-117.94254
4167000000,-64.076172,-130.90465
4170000000,-63.667313,-142.35445
4173000000,-63.705288,-154.15163
4176000000,-63.590771,-168.49629
4179000000,-63.87141,-176.2903
4182000000,-63.434753,171.23988
4185000000,-62.691372,153.94379
4188000000,-63.016449,141.41
4191000000,-63.276928,127.24213
4194000000,-63.367065,114.58425
4197000000,-63.314594,105.11413
4200000000,-63.654335,91.240547
4203000000,-63.368225,78.82299
4206000000,-63.403816,66.813332
4209000000,-63.274918,54.213757
4212000000,-63.731731,41.110714
4215000000,-63.018982,30.527111
4218000000,-62.844975,13.934462
4221000000,-63.361282,1.332054
4224000000,-63.57872,-11.823446
4227000000,-63.765949,-22.676201
4230000000,-63.545605,-34.7066
4233000000,-63.549278,-47.488605
4236000000,-64.047508,-58.431362
4239000000,-63.694008,-70.41375
4242000000,-63.594498,-83.715897
4245000000,-63.811481,-95.679367
4248000000,-63.720318,-108.66592
4251000000,-63.694313,-120.28596
4254000000,-63.482548,-134.75481
4257000000,-63.989517,-149.64275
4260000000,-63.880665,-160.68907
4263000000,-64.184669,-172.72122
4266000000,-63.560677,176.95007
4269000000,-64.023567,163.39453
4272000000,-63.158989,150.90416
4275000000,-64.062416,136.55803
4278000000,-63.650143,127.51125
4281000000,-63.363655,114.47599
4284000000,-63.30595,104.00332
4287000000,-63.487461,88.64315
4290000000,-63.812679,75.510674
4293000000,-64.199944,61.174366
4296000000,-64.45327,53.486103
4299000000,-63.853462,40.631592
4302000000,-63.852764,27.292007
4305000000,-64.311417,10.981975
4308000000,-63.475136,0.18815742
4311000000,-63.647449,-13.218549
4314000000,-64.364067,-24.962313
4317000000,-64.443512,-38.426128
4320000000,-64.208168,-51.086773
4323000000,-63.996525,-59.854233
4326000000,-64.037148,-68.717918
4329000000,-63.987446,-86.695915
4332000000,-64.040642,-97.269089
4335000000,-63.816849,-112.35362
4338000000,-64.632866,-124.49349
4341000000,-64.346603,-132.61981
4344000000,-64.030846,-147.63206
4347000000,-64.184776,-158.86049
4350000000,-64.18177,-170.43643
4353000000,-64.011238,175.63403
4356000000,-64.05777,162.34348
4359000000,-63.98629,146.40901
4362000000,-64.622513,134.3062
4365000000,-64.965546,123.34518
4368000000,-65.131348,115.0799
4371000000,-65.312431,102.15864
4374000000,-64.839981,91.310646
4377000000,-64.273232,83.032913
4380000000,-64.071335,67.214607
4383000000,-64.102753,53.901031
4386000000,-64.072174,38.305332
4389000000,-64.100327,26.430159
4392000000,-64.707802,9.8551693
4395000000,-64.78521,-0.64560515
4398000000,-64.730461,-12.411649
4401000000,-64.861458,-24.755676
4404000000,-64.870926,-36.894703
4407000000,-64.689407,-51.292465
4410000000,-64.509163,-59.868328
4413000000,-64.849892,-70.665817
4416000000,-64.700722,-81.691696
4419000000,-64.938972,-94.67691
4422000000,-64.459877,-112.43362
4425000000,-64.938683,-122.68417
4428000000,-64.41787,-132.72717
4431000000,-64.920761,-143.89917
4434000000,-65.077721,-158.94507
4437000000,-64.500656,-170.41301
4440000000,-65.089272,175.51949
4443000000,-65.020218,160.58319
4446000000,-64.90181,151.22339
4449000000,-65.142349,141.09242
4452000000,-64.553406,129.72395
4455000000,-65.330223,115.62068
4458000000,-64.913651,98.653023
4461000000,-65.217194,90.649292
4464000000,-65.012627,79.341652
4467000000,-65.349655,67.207451
4470000000,-64.985725,54.118176
4473000000,-64.819221,44.8755
4476000000,-65.349625,30.2325
4479000000,-64.960518,20.049824
4482000000,-65.708275,10.181203
4485000000,-64.483681,-1.615108
4488000000,-64.497787,-14.265206
4491000000,-64.210754,-28.665789
4494000000,-64.338669,-46.193134
4497000000,-64.442375,-63.756676
4500000000,-64.894943,-75.290047
4503000000,-65.007584,-85.337479
4506000000,-64.920258,-97.584572
4509000000,-65.889481,-108.45059
4512000000,-65.384537,-116.99548
4515000000,-66.081558,-132.37416
4518000000,-64.973007,-143.57288
4521000000,-64.747276,-156.92287
4524000000,-65.074303,-169.54407
4527000000,-64.959473,178.47101
4530000000,-65.366699,164.34641
4533000000,-65.174896,152.99818
4536000000,-64.93808,145.76176
4539000000,-65.625465,137.11777
4542000000,-64.973671,121.40344
4545000000,-64.944054,105.31571
4548000000,-65.336662,93.142632
4551000000,-65.79528,80.7798
4554000000,-65.493713,69.279221
4557000000,-64.614067,54.976242
4560000000,-65.418022,40.140629
4563000000,-65.064758,28.328028
4566000000,-65.401352,16.950943
4569000000,-65.776489,6.3413019
4572000000,-66.251175,-4.0411172
4575000000,-66.097473,-14.959387
4578000000,-65.262077,-23.118235
4581000000,-64.691345,-40.124855
4584000000,-64.825043,-54.20359
4587000000,-64.818375,-68.666283
4590000000,-65.367256,-81.810524
4593000000,-65.786911,-95.535423
4596000000,-64.979431,-104.99191
4599000000,-65.639885,-115.87041
4602000000,-66.731926,-128.85088
4605000000,-66.19944,-138.88576
4608000000,-65.477158,-149.88515
4611000000,-65.882683,-164.67926
4614000000,-65.973541,-172.35788
4617000000,-65.307007,173.14659
4620000000,-65.423004,160.78679
4623000000,-65.493172,147.7457
4626000000,-65.414642,133.36414
4629000000,-65.386269,122.51697
4632000000,-64.814514,108.81506
4635000000,-65.406609,96.759125
4638000000,-65.613281,85.279228
4641000000,-65.955193,67.622559
4644000000,-66.701775,59.784962
4647000000,-66.227242,52.602161
4650000000,-65.293419,43.924942
4653000000,-65.195038,24.188166
4656000000,-65.740959,14.64396
4659000000,-65.336388,2.0818524
4662000000,-65.021873,-15.06228
4665000000,-65.433807,-22.583546
4668000000,-66.035988,-35.984303
4671000000,-65.944237,-49.87056
4674000000,-65.82299,-60.791492
4677000000,-66.016724,-72.890106
4680000000,-65.276329,-84.192734
4683000000,-65.181641,-94.31218
4686000000,-65.726418,-108.91844
4689000000,-65.173187,-119.95028
4692000000,-65.337982,-132.50615
4695000000,-65.534897,-150.95299
4698000000,-65.822227,-162.79684
4701000000,-65.863739,-172.64197
4704000000,-65.725052,172.60751
4707000000,-65.458603,164.03047
4710000000,-65.981125,154.61299
4713000000,-66.210884,139.67329
4716000000,-66.061356,129.78117
4719000000,-65.723946,117.86854
4722000000,-65.97364,99.23317
4725000000,-65.584694,94.623184
4728000000,-64.646393,77.095406
4731000000,-65.622314,62.958164
4734000000,-65.598206,52.068829
4737000000,-66.55233,43.197754
4740000000,-66.015785,29.179539
4743000000,-65.258301,18.705015
4746000000,-66.034485,7.6773291
4749000000,-65.87925,-1.8396571
4752000000,-65.49762,-14.408921
4755000000,-65.229057,-24.70927
4758000000,-65.654755,-40.33485
4761000000,-64.851715,-53.810425
4764000000,-65.100212,-69.592026
4767000000,-65.661514,-79.909515
4770000000,-66.190102,-90.059921
4773000000,-65.615547,-103.99088
4776000000,-65.884331,-120.04652
4779000000,-65.511635,-129.00079
4782000000,-65.985367,-140.30708
4785000000,-65.837944,-152.42784
4788000000,-64.973778,-160.82303
4791000000,-65.215042,-177.42252
4794000000,-65.797798,169.72571
4797000000,-64.973076,154.9467
4800000000,-64.965103,138.37405
4803000000,-66.325752,128.82529
4806000000,-66.055313,121.49214
4809000000,-66.335365,108.23874
4812000000,-65.694374,98.934372
4815000000,-65.612038,88.820686
4818000000,-65.397751,73.185081
4821000000,-64.846153,59.752087
4824000000,-64.424911,47.882347
4827000000,-64.598442,25.154869
4830000000,-65.369652,16.982437
4833000000,-66.504433,2.3424635
4836000000,-65.757889,-3.971055
4839000000,-65.261269,-18.433514
4842000000,-67.017288,-25.420467
4845000000,-65.467056,-36.070141
4848000000,-65.563576,-51.619015
4851000000,-65.375328,-62.418087
4854000000,-65.175278,-73.320648
4857000000,-65.334892,-94.207565
4860000000,-65.321404,-100.69747
4863000000,-64.999657,-113.35439
4866000000,-65.810631,-124.71877
4869000000,-65.049843,-141.46176
4872000000,-65.789574,-152.58217
4875000000,-65.516182,-165.54947
4878000000,-65.280975,179.02306
4881000000,-65.407852,172.84468
4884000000,-65.217163,154.70468
4887000000,-65.331429,143.76782
4890000000,-64.933952,128.03297
4893000000,-65.094307,118.61054
4896000000,-66.0093,104.6017
4899000000,-65.597557,95.669716
4902000000,-65.103241,82.361984
4905000000,-65.869232,69.000198
4908000000,-66.103317,58.757904
4911000000,-66.205368,50.061199
4914000000,-66.078819,35.680717
4917000000,-65.584122,25.906193
4920000000,-65.54332,11.956709
4923000000,-65.254799,4.8216448
4926000000,-64.943451,-18.19606
4929000000,-65.052681,-31.700083
4932000000,-65.43998,-40.929825
4935000000,-65.638008,-59.013519
4938000000,-67.078712,-70.302216
4941000000,-66.990601,-72.710358
4944000000,-66.420357,-91.638939
4947000000,-66.391991,-96.731102
4950000000,-66.625038,-112.56407
4953000000,-65.959587,-125.87081
4956000000,-65.425095,-135.76099
4959000000,-65.85984,-150.13258
4962000000,-65.788048,-163.42879
4965000000,-65.065056,-175.74428
4968000000,-65.554611,165.06879
4971000000,-66.040367,155.98706
4974000000,-67.367004,142.98148
4977000000,-65.816948,134.59293
4980000000,-66.507462,128.7171
4983000000,-65.52597,113.1757
4986000000,-66.040359,100.89268
4989000000,-66.11319,86.599777
4992000000,-66.161606,72.718384
4995000000,-66.250793,62.711567
4998000000,-66.170036,51.448467
5001000000,-66.52742,37.369995
5004000000,-65.791718,23.549746
5007000000,-66.096985,6.0791554
5010000000,-65.979233,-4.8509955
5013000000,-66.135674,-14.570472
5016000000,-65.700569,-25.228489
5019000000,-66.568054,-34.876785
5022000000,-67.001442,-46.868546
5025000000,-66.661446,-59.882858
5028000000,-66.594818,-73.742256
5031000000,-65.912872,-87.61187
5034000000,-66.115463,-104.93658
5037000000,-65.925941,-115.08727
5040000000,-65.521454,-128.61644
5043000000,-66.242958,-138.23912
5046000000,-67.494484,-151.6893
5049000000,-66.899086,-159.79567
5052000000,-67.7267,-165.76622
5055000000,-67.008141,-177.18495
5058000000,-66.183746,165.6411
5061000000,-65.4786,150.97508
5064000000,-65.218819,141.70268
5067000000,-66.276382,122.73004
5070000000,-66.087448,107.40437
5073000000,-65.614418,100.10336
5076000000,-66.222488,85.092186
5079000000,-66.507935,75.346519
5082000000,-66.832687,62.235645
5085000000,-66.772041,51.79092
5088000000,-67.143394,36.102657
5091000000,-67.847939,27.247398
5094000000,-68.011658,12.132665
5097000000,-67.035164,10.50051
5100000000,-67.060066,-12.276109
5103000000,-66.553719,-19.847765
5106000000,-66.683006,-31.834398
5109000000,-66.663658,-41.261154
5112000000,-66.99221,-60.204868
5115000000,-66.85524,-68.472328
5118000000,-67.384613,-81.94912
5121000000,-66.380287,-95.412071
5124000000,-67.787491,-105.03835
5127000000,-67.293961,-121.74802
5130000000,-67.495132,-129.52229
5133000000,-67.285904,-145.71791
5136000000,-66.891617,-152.93004
5139000000,-66.75663,-163.60959
5142000000,-66.009125,179.0602
5145000000,-68.089035,161.01642
5148000000,-66.921684,155.24014
5151000000,-67.502983,141.85867
5154000000,-66.367989,134.1739
5157000000,-67.288597,121.18797
5160000000,-68.144646,106.81763
5163000000,-67.692635,94.102951
5166000000,-67.590584,84.543976
5169000000,-66.995003,65.961174
5172000000,-68.234055,57.660007
5175000000,-67.507034,40.396206
5178000000,-67.76622,29.557077
5181000000,-68.3964,14.667179
5184000000,-69.079781,6.3199501
5187000000,-67.655632,-3.1496806
5190000000,-67.141975,-9.8767233
5193000000,-67.532646,-19.187828
5196000000,-67.781792,-41.416145
5199000000,-66.743698,-47.261581
5202000000,-67.247383,-68.853249
5205000000,-67.535858,-79.331451
5208000000,-68.47995,-83.681229
5211000000,-67.641579,-106.82578
5214000000,-68.475891,-114.72963
5217000000,-67.581909,-128.17621
5220000000,-68.058296,-136.11073
5223000000,-68.089249,-149.31523
5226000000,-67.120171,-162.86899
5229000000,-68.064415,-176.87793
5232000000,-67.833649,172.97514
5235000000,-68.768211,166.16386
5238000000,-68.699623,142.24814
5241000000,-68.561798,136.15392
5244000000,-68.906967,126.12988
5247000000,-68.32341,113.1884
5250000000,-69.208359,101.90343
5253000000,-69.07592,95.564598
5256000000,-67.865051,73.937843
5259000000,-68.622879,64.474342
5262000000,-69.054474,56.391567
5265000000,-68.840721,37.249863
5268000000,-68.417099,32.804142
5271000000,-68.669769,13.961246
5274000000,-69.009171,0.069484077
5277000000,-68.142616,-9.6805506
5280000000,-68.900322,-26.774727
5283000000,-67.93129,-31.204502
5286000000,-68.73098,-49.158966
5289000000,-69.822838,-54.799191
5292000000,-68.999954,-73.759384
5295000000,-68.817398,-84.774033
5298000000,-69.928215,-88.962502
5301000000,-69.803879,-100.11606
5304000000,-67.912209,-106.60409
5307000000,-68.368614,-129.14667
5310000000,-67.135567,-139.24066
5313000000,-67.396889,-157.92749
5316000000,-68.343399,-173.32687
5319000000,-69.811768,174.46376
5322000000,-70.540253,165.38077
5325000000,-69.357162,155.23961
5328000000,-69.501312,152.52451
5331000000,-68.688133,130.36189
5334000000,-68.282188,118.25092
5337000000,-68.419395,102.25136
5340000000,-67.819679,93.192719
5343000000,-69.881134,82.904114
5346000000,-68.013657,73.318611
5349000000,-68.918701,56.551834
5352000000,-69.380531,46.807198
5355000000,-68.26474,32.60844
5358000000,-70.85054,23.651798
5361000000,-69.239021,13.672008
5364000000,-69.898506,-5.4876795
5367000000,-70.385971,-10.504085
5370000000,-70.09552,-16.448122
5373000000,-69.676842,-30.879419
5376000000,-68.864471,-43.033852
5379000000,-69.79863,-65.722931
5382000000,-68.785027,-86.995949
5385000000,-69.559029,-80.277489
5388000000,-69.930168,-100.66134
5391000000,-70.375938,-116.49273
5394000000,-70.953148,-122.18303
5397000000,-70.352592,-124.97302
5400000000,-70.903343,-142.55557
5403000000,-70.323616,-158.05437
5406000000,-68.335159,-169.47824
5409000000,-70.309677,-179.4619
5412000000,-69.932472,161.65756
5415000000,-68.68029,158.65359
5418000000,-69.848419,140.96248
5421000000,-69.660461,119.17
5424000000,-71.135071,111.36634
5427000000,-70.425156,96.985153
5430000000,-71.641426,76.466026
5433000000,-70.727394,72.22213
5436000000,-71.954521,66.787819
5439000000,-71.481537,53.268223
5442000000,-70.838646,51.659584
5445000000,-69.715622,42.624107
5448000000,-68.747169,25.338055
5451000000,-68.326035,4.2775049
5454000000,-70.197807,-16.673952
5457000000,-70.820305,-24.11236
5460000000,-71.189384,-42.937222
5463000000,-71.748344,-50.96981
5466000000,-71.715454,-51.928753
5469000000,-72.541252,-79.25547
5472000000,-71.204056,-77.527489
5475000000,-72.004601,-76.779854
5478000000,-71.553734,-86.757545
5481000000,-70.031746,-104.2924
5484000000,-70.626862,-116.4344
5487000000,-71.427353,-128.35223
5490000000,-69.621674,-145.26057
5493000000,-71.006042,-164.81424
5496000000,-70.971146,-163.40804
5499000000,-70.537491,177.48047
5502000000,-70.792908,153.48271
5505000000,-70.064514,160.31888
5508000000,-69.768028,131.70625
5511000000,-72.182877,119.53953
5514000000,-71.01973,113.8651
5517000000,-71.670654,97.473862
5520000000,-71.12751,97.796562
5523000000,-71.393173,74.974312
5526000000,-70.295609,72.048233
5529000000,-71.197014,52.145573
5532000000,-70.857193,36.680115
5535000000,-72.678528,35.570164
5538000000,-70.459335,21.991415
5541000000,-71.753502,7.8209577
5544000000,-71.004547,9.0425978
5547000000,-70.894783,-11.088729
5550000000,-70.779488,-18.461374
5553000000,-69.621666,-48.070614
5556000000,-69.661888,-52.335182
5559000000,-70.213425,-67.396797
5562000000,-70.969452,-85.051689
5565000000,-71.237976,-95.959831
5568000000,-71.37265,-109.92377
5571000000,-71.825142,-121.28927
5574000000,-71.508469,-127.11817
5577000000,-72.547417,-139.87183
5580000000,-71.767418,-143.16859
5583000000,-70.501671,-161.44936
5586000000,-70.330223,-166.63638
5589000000,-70.147804,171.37801
5592000000,-70.738007,166.0139
5595000000,-69.749306,146.19046
5598000000,-70.509247,127.6558
5601000000,-71.580765,125.95048
5604000000,-72.895226,95.832184
5607000000,-74.119644,107.0532
5610000000,-71.692711,79.31324
5613000000,-72.00087,75.992538
5616000000,-72.929222,63.825729
5619000000,-71.696457,57.877728
5622000000,-69.697975,44.831947
5625000000,-72.726646,31.156223
5628000000,-69.979195,15.605105
5631000000,-72.424492,8.5539227
5634000000,-71.530899,-13.595329
5637000000,-71.938972,-12.923491
5640000000,-73.485443,-33.007828
5643000000,-72.564232,-53.748764
5646000000,-71.145248,-60.125378
5649000000,-72.685242,-66.120445
5652000000,-71.027527,-95.037437
5655000000,-70.940994,-100.03578
5658000000,-72.861794,-104.90561
5661000000,-72.001839,-117.21892
5664000000,-72.896736,-125.7131
5667000000,-71.849777,-146.70172
5670000000,-73.507881,-156.10597
5673000000,-73.713135,179.04044
5676000000,-72.846619,-163.2413
5679000000,-72.063438,-176.99245
5682000000,-72.325035,157.73975
5685000000,-70.918221,150.77393
5688000000,-71.211403,135.39034
5691000000,-72.067924,115.36047
5694000000,-73.187935,104.77524
5697000000,-71.883369,89.276848
5700000000,-73.229889,72.352127
5703000000,-71.999718,77.873436
5706000000,-73.197197,58.985474
5709000000,-74.65625,57.439133
5712000000,-72.515602,46.171917
5715000000,-73.096344,47.328182
5718000000,-72.019791,32.112503
5721000000,-71.561729,3.7160053
5724000000,-72.679832,3.1541822
5727000000,-72.500099,-16.402992
5730000000,-73.110504,-38.248333
5733000000,-72.592514,-52.93079
5736000000,-71.553612,-64.967941
5739000000,-73.290588,-80.374275
5742000000,-72.518845,-91.14875
5745000000,-75.456512,-81.224854
5748000000,-75.844254,-100.7077
5751000000,-74.182701,-102.46523
5754000000,-75.360443,-114.14509
5757000000,-73.202362,-126.20893
5760000000,-71.685287,-145.49606
5763000000,-73.271454,-163.06076
5766000000,-71.732658,179.49564
5769000000,-72.373199,165.31709
5772000000,-75.21859,144.22028
5775000000,-74.785042,142.75945
5778000000,-75.890724,147.62445
5781000000,-74.958687,140.92589
5784000000,-72.469109,123.77631
5787000000,-73.195145,107.79292
5790000000,-73.295937,95.219604
5793000000,-73.205727,83.849541
5796000000,-72.595963,71.615929
5799000000,-73.831078,56.347862
5802000000,-73.760826,29.625351
5805000000,-75.412918,21.701872
5808000000,-74.837227,6.1121864
5811000000,-74.79541,14.477036
5814000000,-75.809875,-5.4658437
5817000000,-74.074234,-5.3905354
5820000000,-75.214745,8.7529001
5823000000,-74.04734,-30.036488
5826000000,-74.668091,-37.744949
5829000000,-73.135452,-55.622665
5832000000,-71.295555,-60.163761
5835000000,-73.90432,-94.390259
5838000000,-73.742599,-98.972641
5841000000,-73.725594,-93.687553
5844000000,-73.353737,-120.96959
5847000000,-75.264587,-108.81553
5850000000,-75.258179,-129.20071
5853000000,-73.883064,-153.15492
5856000000,-72.855286,-163.17645
5859000000,-74.975464,-165.6514
5862000000,-74.166946,165.71178
5865000000,-74.813499,178.85114
5868000000,-73.013901,160.59659
5871000000,-75.030785,155.06499
5874000000,-73.386505,121.83678
5877000000,-73.708282,109.38734
5880000000,-75.398849,109.68656
5883000000,-72.855736,91.580757
5886000000,-75.847153,75.298256
5889000000,-74.57428,60.382412
5892000000,-73.917564,81.326584
5895000000,-73.822762,46.683975
5898000000,-73.664085,19.11993
5901000000,-75.500862,29.880135
5904000000,-74.000374,5.5658107
5907000000,-73.40657,-17.904413
5910000000,-73.39576,-10.534225
5913000000,-74.893936,-25.204651
5916000000,-75.934525,-16.41404
5919000000,-73.53653,-32.766865
5922000000,-73.546951,-43.487621
5925000000,-74.065285,-59.26894
5928000000,-71.854553,-85.315536
5931000000,-72.849663,-94.163666
5934000000,-71.278587,-120.62766
5937000000,-72.931564,-124.66634
5940000000,-74.3657,-144.13026
5943000000,-76.209663,-129.22305
5946000000,-77.908943,-169.01273
5949000000,-75.027603,-166.0128
5952000000,-74.90786,-175.30324
5955000000,-75.986931,170.8502
5958000000,-77.763367,165.24506
5961000000,-71.668152,152.01361
5964000000,-74.218475,138.55255
5967000000,-71.630844,128.31552
5970000000,-72.519531,105.4901
5973000000,-72.014282,93.767647
5976000000,-75.612236,75.718727
5979000000,-71.867073,76.965813
5982000000,-72.476425,60.963757
5985000000,-73.545158,55.739464
5988000000,-76.653313,24.832331
5991000000,-73.719582,46.372925
5994000000,-75.258514,37.678028
5997000000,-73.699257,4.0644469
6000000000,-74.768082,-9.8825722
END

