!CSV A.01.01
!Keysight Technologies,N5227B,US58420762,A.13.80.08
!Date: Tuesday, November 21, 2023 09:41:51
!Source: Standard

BEGIN CH1_DATA
Freq(Hz),S21(DB),S21(DEG)
3000000000,-55.565445,-124.02309
3003000000,-55.397827,-132.90375
3006000000,-55.259541,-142.99652
3009000000,-55.244354,-151.41519
3012000000,-55.201595,-161.74223
3015000000,-55.237064,-170.36398
3018000000,-55.309845,-179.53848
3021000000,-55.348099,171.83585
3024000000,-55.308804,162.69827
3027000000,-55.364079,154.09608
3030000000,-55.505573,147.76253
3033000000,-55.342888,139.40695
3036000000,-55.043678,130.6413
3039000000,-54.84483,120.8598
3042000000,-54.763004,110.10453
3045000000,-54.986649,100.12476
3048000000,-55.232883,91.061546
3051000000,-55.284027,83.684547
3054000000,-55.338932,74.186043
3057000000,-55.431126,66.920486
3060000000,-55.495537,58.633583
3063000000,-55.462284,50.210194
3066000000,-55.357731,42.434456
3069000000,-55.322929,33.866634
3072000000,-55.319191,26.220634
3075000000,-55.269314,16.876499
3078000000,-55.103676,7.4615965
3081000000,-55.12759,-1.7663363
3084000000,-55.370674,-10.147934
3087000000,-55.340511,-19.381804
3090000000,-55.381275,-26.297382
3093000000,-55.464924,-34.415218
3096000000,-55.438816,-43.416943
3099000000,-55.413219,-50.8769
3102000000,-55.169567,-58.765949
3105000000,-55.055954,-66.98793
3108000000,-54.91803,-75.064346
3111000000,-54.675762,-84.614342
3114000000,-54.546158,-94.51722
3117000000,-54.622772,-103.70391
3120000000,-54.61784,-112.80664
3123000000,-54.661083,-122.39173
3126000000,-54.659306,-130.94119
3129000000,-54.8176,-139.27824
3132000000,-54.664604,-147.00874
3135000000,-54.629711,-156.86407
3138000000,-54.699459,-165.3309
3141000000,-54.719059,-174.0477
3144000000,-54.625149,177.15276
3147000000,-54.540932,168.54755
3150000000,-54.438549,159.32588
3153000000,-54.363449,149.3551
3156000000,-54.500862,139.03058
3159000000,-54.714981,129.1357
3162000000,-55.265442,122.42685
3165000000,-55.279766,115.16295
3168000000,-55.285042,108.90326
3171000000,-55.076923,101.39857
3174000000,-54.868076,92.882271
3177000000,-54.734856,83.639717
3180000000,-54.576157,73.851158
3183000000,-54.68924,64.564919
3186000000,-54.723953,55.570545
3189000000,-54.754025,45.940277
3192000000,-55.062557,36.969429
3195000000,-55.354042,30.268003
3198000000,-55.311424,24.461861
3201000000,-55.047131,18.027111
3204000000,-54.721027,9.536562
3207000000,-54.555935,0.32451728
3210000000,-54.340157,-8.8426085
3213000000,-54.175957,-18.700392
3216000000,-54.084339,-29.018148
3219000000,-54.31485,-39.040108
3222000000,-54.245571,-46.898712
3225000000,-54.25584,-56.489429
3228000000,-54.362442,-65.206841
3231000000,-54.464771,-73.359596
3234000000,-54.248398,-81.632034
3237000000,-54.318062,-90.4664
3240000000,-54.21986,-99.723885
3243000000,-54.226929,-108.37834
3246000000,-54.021172,-117.54681
3249000000,-54.031471,-126.83389
3252000000,-54.015984,-136.54787
3255000000,-54.133198,-146.21576
3258000000,-54.326153,-156.05801
3261000000,-54.309372,-164.94052
3264000000,-54.502846,-173.57497
3267000000,-54.687553,178.06476
3270000000,-54.839706,170.52686
3273000000,-54.85284,161.04721
3276000000,-54.846577,153.02063
3279000000,-54.85553,145.05135
3282000000,-54.996105,137.84157
3285000000,-54.959026,128.99248
3288000000,-54.659863,120.13354
3291000000,-54.640011,111.35096
3294000000,-54.838638,101.61031
3297000000,-54.920002,93.203377
3300000000,-55.042194,85.628693
3303000000,-55.10474,78.094131
3306000000,-55.090378,69.256439
3309000000,-55.101563,62.974091
3312000000,-54.905411,54.468174
3315000000,-54.816257,45.77816
3318000000,-54.58683,37.023258
3321000000,-54.611347,27.828693
3324000000,-54.570141,17.874994
3327000000,-54.502651,8.5230732
3330000000,-54.649776,0.20856601
3333000000,-54.804184,-8.4656954
3336000000,-54.731274,-18.201664
3339000000,-54.627903,-25.311705
3342000000,-54.822487,-34.429268
3345000000,-54.681835,-42.346455
3348000000,-54.630985,-52.041191
3351000000,-54.580837,-61.51799
3354000000,-54.714661,-70.72596
3357000000,-54.590633,-79.169731
3360000000,-54.761784,-88.417175
3363000000,-54.901875,-95.975624
3366000000,-54.974957,-105.06531
3369000000,-54.935242,-113.85018
3372000000,-54.993484,-122.6768
3375000000,-55.273109,-130.09451
3378000000,-55.310257,-139.01299
3381000000,-55.239082,-147.68776
3384000000,-55.297421,-155.94708
3387000000,-55.348972,-162.48009
3390000000,-55.367908,-171.69777
3393000000,-55.232052,-179.29019
3396000000,-55.280037,170.75012
3399000000,-55.277721,163.37143
3402000000,-55.121101,155.45761
3405000000,-55.01516,148.16245
3408000000,-55.067726,137.76123
3411000000,-54.942104,128.89287
3414000000,-55.006821,119.87459
3417000000,-55.132324,111.01865
3420000000,-55.241901,102.90192
3423000000,-55.132244,94.940857
3426000000,-55.064873,86.062782
3429000000,-54.840359,76.815613
3432000000,-55.077045,68.426903
3435000000,-54.983402,59.472485
3438000000,-54.981049,49.972931
3441000000,-55.051785,41.686241
3444000000,-55.045334,33.234146
3447000000,-54.880375,24.943892
3450000000,-54.851078,15.628521
3453000000,-54.746086,6.3423462
3456000000,-54.863026,-3.6217697
3459000000,-54.968567,-12.815983
3462000000,-55.215069,-22.455818
3465000000,-55.474277,-30.857119
3468000000,-55.623867,-38.0037
3471000000,-55.710625,-45.50246
3474000000,-55.405132,-54.085804
3477000000,-55.418854,-62.652431
3480000000,-55.373943,-72.262306
3483000000,-55.417389,-81.530075
3486000000,-55.737507,-89.510551
3489000000,-55.763062,-99.28199
3492000000,-55.842403,-106.35183
3495000000,-55.928692,-114.09679
3498000000,-55.997707,-123.62648
3501000000,-56.208038,-129.75323
3504000000,-56.142521,-137.43739
3507000000,-55.82272,-145.95801
3510000000,-55.817493,-153.24648
3513000000,-55.518639,-162.67413
3516000000,-55.549671,-173.81166
3519000000,-55.583721,177.41615
3522000000,-55.782417,169.74922
3525000000,-55.599663,160.29704
3528000000,-55.670818,151.60487
3531000000,-56.010075,143.36909
3534000000,-55.971184,134.98087
3537000000,-56.183506,126.66013
3540000000,-55.989193,119.22218
3543000000,-55.828327,110.98859
3546000000,-55.907177,101.24976
3549000000,-55.925823,92.335289
3552000000,-55.965973,83.491753
3555000000,-55.902935,74.122551
3558000000,-56.072086,64.776985
3561000000,-56.153233,57.023155
3564000000,-56.176891,46.844318
3567000000,-56.489357,39.347755
3570000000,-56.665394,30.015741
3573000000,-56.81934,23.296629
3576000000,-56.834442,16.986687
3579000000,-56.829033,9.3207464
3582000000,-56.534748,2.0357468
3585000000,-56.277893,-6.593647
3588000000,-56.213749,-15.715575
3591000000,-56.21418,-25.489862
3594000000,-56.431633,-35.617676
3597000000,-56.4231,-43.581219
3600000000,-56.664181,-52.702515
3603000000,-56.537567,-59.680355
3606000000,-56.73402,-68.025978
3609000000,-56.560242,-77.080368
3612000000,-56.595776,-84.504761
3615000000,-56.658947,-92.071594
3618000000,-56.59256,-101.22096
3621000000,-56.42104,-109.0497
3624000000,-56.220329,-118.34634
3627000000,-56.340984,-129.18323
3630000000,-56.430683,-138.70592
3633000000,-56.741135,-147.4041
3636000000,-56.66412,-155.82672
3639000000,-57.064671,-163.09116
3642000000,-57.070316,-172.27553
3645000000,-57.031929,-179.73038
3648000000,-57.151516,173.15488
3651000000,-57.149559,165.49347
3654000000,-56.954552,155.55795
3657000000,-56.924824,147.03915
3660000000,-57.282204,137.95201
3663000000,-57.186707,129.89557
3666000000,-57.201984,121.27386
3669000000,-57.261547,111.9819
3672000000,-57.509296,103.27649
3675000000,-57.871902,95.967506
3678000000,-57.871399,88.548073
3681000000,-57.888092,81.605408
3684000000,-57.610291,74.757904
3687000000,-57.590096,66.82077
3690000000,-57.311401,56.912121
3693000000,-57.409832,49.395271
3696000000,-57.346878,40.700321
3699000000,-57.392391,31.899443
3702000000,-57.418171,23.190828
3705000000,-57.583221,14.745876
3708000000,-57.619831,6.9219751
3711000000,-57.758064,-1.5740787
3714000000,-57.68824,-9.2025337
3717000000,-57.668957,-15.154928
3720000000,-57.602291,-23.24651
3723000000,-57.445572,-31.510403
3726000000,-57.289135,-40.342369
3729000000,-57.238941,-48.731621
3732000000,-57.049828,-57.998291
3735000000,-56.985382,-67.569138
3738000000,-56.890629,-77.201973
3741000000,-57.085625,-85.756493
3744000000,-57.350636,-93.837906
3747000000,-57.380299,-102.40926
3750000000,-57.301212,-109.064
3753000000,-57.244656,-117.4533
3756000000,-56.950935,-125.34288
3759000000,-57.116314,-136.29604
3762000000,-56.916367,-144.36095
3765000000,-56.863575,-154.04269
3768000000,-56.843258,-162.90063
3771000000,-57.015194,-170.94217
3774000000,-57.036339,179.70122
3777000000,-57.220562,171.75246
3780000000,-57.18531,163.86627
3783000000,-57.173954,156.08713
3786000000,-57.213226,146.79254
3789000000,-57.251476,138.08087
3792000000,-57.133755,129.31807
3795000000,-57.250252,120.65363
3798000000,-57.129662,113.24463
3801000000,-57.258572,102.83879
3804000000,-57.184208,94.647491
3807000000,-57.559608,85.463036
3810000000,-57.376724,77.824577
3813000000,-57.567535,69.669174
3816000000,-57.668503,60.521912
3819000000,-57.632359,53.902313
3822000000,-57.547348,45.07299
3825000000,-57.571011,36.065468
3828000000,-57.333813,26.368544
3831000000,-57.402874,18.788387
3834000000,-57.431416,8.8122768
3837000000,-57.56049,-0.19413961
3840000000,-57.71542,-9.3146734
3843000000,-58.113892,-15.045422
3846000000,-58.012203,-21.587812
3849000000,-58.254974,-30.249283
3852000000,-57.729549,-36.116013
3855000000,-57.691887,-45.872841
3858000000,-57.568462,-54.170082
3861000000,-57.621746,-64.276939
3864000000,-57.405029,-74.17189
3867000000,-57.747765,-84.066925
3870000000,-57.976978,-91.58609
3873000000,-58.08812,-99.755699
3876000000,-58.196182,-107.63939
3879000000,-57.865715,-113.93867
3882000000,-58.117935,-121.81322
3885000000,-57.941429,-129.23869
3888000000,-57.672832,-136.65909
3891000000,-57.627052,-147.51506
3894000000,-57.685894,-159.52245
3897000000,-57.730793,-167.19051
3900000000,-57.980648,-175.53354
3903000000,-57.940323,178.29305
3906000000,-58.309967,168.23636
3909000000,-58.308262,161.66141
3912000000,-57.833523,153.44374
3915000000,-57.900478,145.46053
3918000000,-57.824139,135.01334
3921000000,-57.913883,127.87435
3924000000,-58.00069,120.17536
3927000000,-58.005806,111.16383
3930000000,-58.075687,103.2176
3933000000,-58.046459,94.845009
3936000000,-58.064793,85.319588
3939000000,-58.02668,76.977547
3942000000,-57.912151,68.911674
3945000000,-58.169216,59.424812
3948000000,-58.138931,52.971272
3951000000,-58.143929,44.971008
3954000000,-58.111595,36.857708
3957000000,-57.990971,29.905922
3960000000,-57.85236,19.616642
3963000000,-57.608013,11.331528
3966000000,-57.52639,2.1831594
3969000000,-57.41341,-9.2314053
3972000000,-57.657993,-17.183563
3975000000,-57.717667,-25.152319
3978000000,-58.051033,-33.289322
3981000000,-57.946522,-40.580372
3984000000,-57.958206,-49.286865
3987000000,-57.80151,-56.218597
3990000000,-57.69574,-63.661263
3993000000,-57.508568,-73.425652
3996000000,-57.414455,-82.526436
3999000000,-57.474579,-91.933304
4002000000,-57.367146,-102.66457
4005000000,-57.456562,-112.36407
4008000000,-57.658459,-119.88551
4011000000,-57.872906,-127.51467
4014000000,-58.166977,-136.66992
4017000000,-58.084549,-145.00179
4020000000,-57.954044,-151.77167
4023000000,-57.795765,-159.23294
4026000000,-57.772564,-168.44449
4029000000,-57.785263,-178.33173
4032000000,-57.645775,172.03116
4035000000,-57.850452,163.17247
4038000000,-58.035618,153.7504
4041000000,-58.129749,145.78218
4044000000,-58.190712,137.08447
4047000000,-58.266174,130.92603
4050000000,-58.359509,123.49473
4053000000,-58.355,115.27016
4056000000,-58.299744,105.3708
4059000000,-58.166721,97.615044
4062000000,-58.202015,89.715027
4065000000,-58.296494,80.097473
4068000000,-58.161999,70.635406
4071000000,-58.432854,64.097984
4074000000,-58.583359,55.010967
4077000000,-58.251266,46.530964
4080000000,-58.168182,37.663456
4083000000,-58.416092,29.653963
4086000000,-58.420345,19.008518
4089000000,-58.404964,12.608256
4092000000,-58.815662,5.9268708
4095000000,-59.037582,-1.1618403
4098000000,-58.52504,-10.789392
4101000000,-58.47921,-18.049059
4104000000,-58.026699,-25.935459
4107000000,-57.986782,-35.621803
4110000000,-57.979939,-46.102112
4113000000,-58.417023,-55.42382
4116000000,-58.555561,-65.138359
4119000000,-58.838898,-73.955772
4122000000,-59.103077,-81.83007
4125000000,-59.242756,-87.647377
4128000000,-59.02388,-93.790443
4131000000,-59.041988,-102.89066
4134000000,-58.89439,-109.46379
4137000000,-58.848652,-119.81454
4140000000,-58.944607,-128.74139
4143000000,-59.153919,-136.68953
4146000000,-59.068649,-145.82925
4149000000,-59.362885,-154.29173
4152000000,-59.220512,-160.86356
4155000000,-58.931286,-169.3981
4158000000,-59.088615,-175.67688
4161000000,-58.935802,175.1852
4164000000,-59.163258,166.90318
4167000000,-58.916889,160.01511
4170000000,-59.081066,151.30264
4173000000,-58.911301,143.74367
4176000000,-58.85252,135.32135
4179000000,-59.018776,126.49068
4182000000,-58.570164,118.34636
4185000000,-58.786488,111.31119
4188000000,-58.408611,101.62975
4191000000,-58.176517,93.056824
4194000000,-58.322239,83.013573
4197000000,-58.315266,74.637253
4200000000,-58.681053,63.678127
4203000000,-58.750526,57.673512
4206000000,-58.922421,48.476086
4209000000,-58.772629,43.153435
4212000000,-58.500599,37.031349
4215000000,-58.415855,28.342455
4218000000,-58.020035,17.899727
4221000000,-58.111134,7.6957569
4224000000,-58.096745,-1.3852773
4227000000,-58.329475,-10.831038
4230000000,-58.331501,-17.988716
4233000000,-58.504536,-26.794838
4236000000,-58.174042,-32.656933
4239000000,-58.103916,-40.539436
4242000000,-57.970783,-49.505783
4245000000,-57.849648,-57.72443
4248000000,-57.787262,-69.640327
4251000000,-57.867523,-76.205795
4254000000,-57.876469,-85.25853
4257000000,-57.781769,-93.014816
4260000000,-57.506748,-103.46944
4263000000,-57.740875,-110.9621
4266000000,-57.686523,-119.95004
4269000000,-57.731186,-127.87692
4272000000,-57.71175,-137.4648
4275000000,-57.677612,-147.42374
4278000000,-57.563522,-156.53275
4281000000,-57.851654,-165.66077
4284000000,-57.836697,-174.27451
4287000000,-57.838589,178.63763
4290000000,-57.757629,168.75241
4293000000,-57.656422,159.68257
4296000000,-57.335907,151.05693
4299000000,-57.84465,141.5956
4302000000,-57.93771,133.61105
4305000000,-57.862309,122.4411
4308000000,-58.13942,115.42372
4311000000,-58.390739,106.60098
4314000000,-58.065216,99.125244
4317000000,-58.414543,90.952438
4320000000,-58.530888,83.02021
4323000000,-58.800835,74.137283
4326000000,-58.873127,66.199707
4329000000,-58.611286,56.9603
4332000000,-58.750084,48.48381
4335000000,-58.75106,41.62801
4338000000,-58.906002,34.274651
4341000000,-58.847134,25.223343
4344000000,-58.80862,17.553574
4347000000,-58.907543,8.8096266
4350000000,-58.889362,1.1742548
4353000000,-58.768703,-8.7280188
4356000000,-58.981663,-15.921593
4359000000,-59.048405,-22.176531
4362000000,-59.011112,-31.30257
4365000000,-58.818916,-39.761055
4368000000,-58.918041,-47.022678
4371000000,-59.050625,-56.27528
4374000000,-58.676395,-62.045044
4377000000,-58.505684,-70.684517
4380000000,-58.552315,-80.352776
4383000000,-58.712612,-89.186188
4386000000,-58.511227,-96.347466
4389000000,-58.449493,-104.64899
4392000000,-58.399368,-113.25313
4395000000,-58.340469,-121.51584
4398000000,-58.472424,-131.80556
4401000000,-58.54026,-140.39204
4404000000,-58.61314,-146.98816
4407000000,-58.457245,-155.11763
4410000000,-58.119576,-163.42606
4413000000,-58.159603,-173.24107
4416000000,-58.126263,178.08748
4419000000,-58.298798,167.21883
4422000000,-58.198269,160.98674
4425000000,-58.148064,152.70538
4428000000,-58.374809,140.98291
4431000000,-58.464901,132.39922
4434000000,-58.560097,126.28741
4437000000,-58.368782,118.64159
4440000000,-58.344112,111.76249
4443000000,-58.303001,102.18781
4446000000,-58.485344,91.918549
4449000000,-58.659351,86.837715
4452000000,-58.555771,79.020615
4455000000,-58.328796,70.553139
4458000000,-58.340542,60.357487
4461000000,-58.299889,52.554947
4464000000,-58.088337,42.025642
4467000000,-58.11042,33.329262
4470000000,-58.568085,25.558569
4473000000,-58.402481,16.765038
4476000000,-58.560799,10.756599
4479000000,-58.166069,2.9932566
4482000000,-58.185921,-5.1727901
4485000000,-58.10862,-13.772483
4488000000,-57.768524,-23.280321
4491000000,-57.802666,-33.582798
4494000000,-57.74004,-42.824535
4497000000,-58.107864,-51.994514
4500000000,-58.086525,-61.418224
4503000000,-57.745564,-66.516396
4506000000,-57.724758,-77.260094
4509000000,-57.621441,-86.042358
4512000000,-57.786633,-96.56234
4515000000,-57.945705,-104.09682
4518000000,-58.301769,-113.29832
4521000000,-58.378975,-119.94153
4524000000,-58.466923,-127.69935
4527000000,-58.212688,-137.25545
4530000000,-58.277863,-145.68484
4533000000,-58.146389,-153.48308
4536000000,-58.189636,-162.05464
4539000000,-58.011864,-170.76071
4542000000,-57.971596,179.41446
4545000000,-57.966511,172.23442
4548000000,-58.121838,163.2645
4551000000,-58.103092,153.47453
4554000000,-58.441929,144.8868
4557000000,-58.068314,136.98459
4560000000,-58.171703,128.53831
4563000000,-58.595825,120.05764
4566000000,-58.292542,112.56265
4569000000,-58.500481,106.35643
4572000000,-58.249672,95.68026
4575000000,-58.164169,87.109276
4578000000,-57.855152,77.353233
4581000000,-57.882965,68.197968
4584000000,-58.516949,58.069462
4587000000,-58.59708,49.890942
4590000000,-58.751377,43.670555
4593000000,-58.714443,36.531879
4596000000,-58.742519,27.984219
4599000000,-58.405067,20.969959
4602000000,-58.384068,10.884275
4605000000,-58.256008,3.6376162
4608000000,-58.413128,-5.6563988
4611000000,-58.496906,-13.758179
4614000000,-58.364746,-22.119699
4617000000,-58.35268,-31.68231
4620000000,-58.365738,-40.05724
4623000000,-58.630558,-47.712238
4626000000,-58.517006,-56.204098
4629000000,-58.81448,-65.668045
4632000000,-58.779129,-73.727211
4635000000,-58.906319,-80.458679
4638000000,-59.007671,-89.289566
4641000000,-58.574409,-96.336098
4644000000,-58.863461,-103.13887
4647000000,-58.175789,-114.63817
4650000000,-58.395687,-122.14568
4653000000,-58.562176,-131.41766
4656000000,-58.643841,-139.76796
4659000000,-58.66605,-148.04988
4662000000,-58.521545,-156.8103
4665000000,-58.689243,-165.61458
4668000000,-58.913914,-170.36829
4671000000,-59.034531,179.73923
4674000000,-58.891411,173.53854
4677000000,-58.704731,166.86539
4680000000,-58.466816,158.56558
4683000000,-58.055115,150.77396
4686000000,-57.914227,139.57735
4689000000,-57.800934,129.65405
4692000000,-58.16291,121.28258
4695000000,-58.344185,111.24355
4698000000,-58.148624,103.89842
4701000000,-58.367836,95.598045
4704000000,-58.116566,88.595779
4707000000,-58.062263,80.248512
4710000000,-58.010162,72.064217
4713000000,-57.796532,60.891949
4716000000,-57.705273,53.026817
4719000000,-57.817032,43.925037
4722000000,-57.944462,33.759403
4725000000,-58.169163,24.626522
4728000000,-58.065842,19.042933
4731000000,-58.299747,10.957222
4734000000,-58.489517,2.1205108
4737000000,-58.190475,-4.0304885
4740000000,-57.776573,-11.962843
4743000000,-57.905525,-20.660135
4746000000,-57.651936,-30.189772
4749000000,-57.370789,-39.534885
4752000000,-57.558792,-48.775894
4755000000,-57.62986,-59.611042
4758000000,-57.470009,-66.183472
4761000000,-57.557629,-74.685593
4764000000,-57.577396,-81.515465
4767000000,-57.435478,-89.627052
4770000000,-57.288803,-99.883766
4773000000,-57.438595,-108.86257
4776000000,-57.29134,-117.24371
4779000000,-57.4534,-128.78838
4782000000,-57.599686,-135.1091
4785000000,-57.404411,-142.77577
4788000000,-57.448814,-152.78999
4791000000,-57.19606,-162.41797
4794000000,-57.306824,-173.07712
4797000000,-57.393631,179.22192
4800000000,-57.504997,170.80003
4803000000,-57.395321,162.3687
4806000000,-57.559402,153.77171
4809000000,-57.54805,145.50972
4812000000,-57.792915,136.69312
4815000000,-57.635353,127.06906
4818000000,-57.724445,120.4913
4821000000,-57.989948,110.09957
4824000000,-57.893398,100.46758
4827000000,-57.773338,93.056099
4830000000,-58.212135,83.339821
4833000000,-58.469929,76.61692
4836000000,-58.180065,67.447296
4839000000,-58.275856,60.153347
4842000000,-57.976242,51.941494
4845000000,-58.275951,43.394657
4848000000,-58.00272,35.865257
4851000000,-58.299034,27.097221
4854000000,-58.173592,17.556923
4857000000,-58.14212,8.1998415
4860000000,-58.107395,-1.0461022
4863000000,-58.533695,-7.5368209
4866000000,-58.327755,-16.560547
4869000000,-58.405003,-22.041727
4872000000,-58.418858,-29.90803
4875000000,-58.409363,-37.655396
4878000000,-58.035191,-46.376427
4881000000,-58.016392,-55.913639
4884000000,-57.940739,-66.67852
4887000000,-58.005531,-73.490799
4890000000,-58.311306,-83.442642
4893000000,-58.474697,-89.735161
4896000000,-58.591942,-98.198273
4899000000,-58.39922,-104.8036
4902000000,-57.95911,-112.8076
4905000000,-57.817516,-122.62725
4908000000,-57.943985,-132.47783
4911000000,-57.873215,-141.97134
4914000000,-58.212948,-150.15781
4917000000,-58.037106,-159.82445
4920000000,-58.067719,-166.00824
4923000000,-58.209137,-174.73727
4926000000,-58.035957,176.47418
4929000000,-57.864487,168.70988
4932000000,-57.847191,160.41635
4935000000,-57.883961,151.28285
4938000000,-57.68771,141.33096
4941000000,-57.845772,133.40627
4944000000,-58.094498,123.59932
4947000000,-58.001858,113.99985
4950000000,-58.080944,108.38789
4953000000,-57.672104,99.409294
4956000000,-58.004955,91.289108
4959000000,-57.874027,84.000443
4962000000,-57.854725,75.24826
4965000000,-57.606495,65.149704
4968000000,-57.875954,56.508541
4971000000,-57.408016,48.258949
4974000000,-58.085617,38.615181
4977000000,-57.708569,30.506023
4980000000,-58.101589,23.022404
4983000000,-57.741547,15.639276
4986000000,-57.766327,4.8842168
4989000000,-58.009369,-2.4053442
4992000000,-57.692154,-11.247791
4995000000,-57.857544,-20.684952
4998000000,-57.948536,-29.617115
5001000000,-57.631748,-38.259705
5004000000,-58.22834,-47.620251
5007000000,-58.12439,-54.694092
5010000000,-58.013531,-61.932125
5013000000,-57.892319,-72.355164
5016000000,-57.79937,-79.652832
5019000000,-58.005646,-89.212868
5022000000,-58.153172,-98.53656
5025000000,-58.026993,-108.11977
5028000000,-57.91721,-117.05067
5031000000,-58.521233,-121.94528
5034000000,-58.415264,-132.22435
5037000000,-58.277855,-139.77539
5040000000,-58.062428,-147.07326
5043000000,-58.195446,-158.28952
5046000000,-58.018623,-165.20238
5049000000,-58.175907,-174.35139
5052000000,-57.865555,177.47572
5055000000,-58.630402,168.69321
5058000000,-58.207294,160.90437
5061000000,-58.208595,151.05585
5064000000,-58.69313,143.33206
5067000000,-58.660442,137.62691
5070000000,-58.373604,129.07513
5073000000,-58.086521,119.39088
5076000000,-58.174911,111.02606
5079000000,-58.316643,98.868988
5082000000,-58.19289,90.909081
5085000000,-58.323849,84.01017
5088000000,-58.181671,74.493141
5091000000,-58.244392,65.961388
5094000000,-58.608849,58.446495
5097000000,-58.582771,50.153477
5100000000,-58.383007,43.575714
5103000000,-58.463585,34.16357
5106000000,-58.550186,24.407585
5109000000,-58.503002,17.231638
5112000000,-58.684521,9.8923826
5115000000,-58.800678,-2.6137981
5118000000,-58.504696,-8.5168161
5121000000,-58.419262,-18.294649
5124000000,-58.671173,-25.137487
5127000000,-58.794472,-32.157578
5130000000,-59.00798,-44.137863
5133000000,-58.593334,-50.791424
5136000000,-58.540565,-60.211246
5139000000,-58.419113,-68.11203
5142000000,-58.68084,-76.269775
5145000000,-58.839123,-86.73484
5148000000,-58.333031,-92.454948
5151000000,-58.501656,-103.25516
5154000000,-58.260685,-112.18584
5157000000,-58.652992,-120.63866
5160000000,-58.777786,-127.0836
5163000000,-58.583714,-136.72981
5166000000,-58.444439,-144.38194
5169000000,-58.802441,-154.201
5172000000,-58.87067,-160.58633
5175000000,-59.000431,-167.41539
5178000000,-59.067322,-177.14888
5181000000,-58.58952,176.37505
5184000000,-58.570114,165.59042
5187000000,-59.080193,157.47705
5190000000,-58.619236,147.01323
5193000000,-58.709366,141.65605
5196000000,-58.726753,133.01729
5199000000,-58.573273,123.25541
5202000000,-58.434692,117.81458
5205000000,-58.35244,107.93555
5208000000,-58.294621,98.665619
5211000000,-58.004143,90.494171
5214000000,-58.15852,78.998405
5217000000,-58.289036,71.304024
5220000000,-58.485485,62.275875
5223000000,-58.513718,52.634457
5226000000,-58.493904,44.56435
5229000000,-58.440598,36.579369
5232000000,-58.268257,27.385967
5235000000,-58.439709,18.974508
5238000000,-58.65913,10.586035
5241000000,-58.50462,1.4422725
5244000000,-58.604694,-6.7597513
5247000000,-58.564602,-15.212167
5250000000,-58.939995,-26.487719
5253000000,-59.22892,-32.932152
5256000000,-58.689491,-41.840485
5259000000,-59.094246,-49.1721
5262000000,-58.879486,-57.658264
5265000000,-59.328804,-64.097755
5268000000,-58.83342,-75.598656
5271000000,-59.071613,-83.461868
5274000000,-59.18,-91.822586
5277000000,-59.385479,-101.95867
5280000000,-59.105717,-109.05797
5283000000,-59.220531,-117.49766
5286000000,-59.262379,-128.8969
5289000000,-59.286186,-135.99757
5292000000,-59.306103,-143.78554
5295000000,-59.665424,-151.33447
5298000000,-59.487572,-160.34746
5301000000,-59.790768,-167.84561
5304000000,-59.771126,-173.53706
5307000000,-59.700905,176.02187
5310000000,-59.861145,170.18095
5313000000,-59.762196,161.73306
5316000000,-59.350956,152.73602
5319000000,-58.934555,144.15633
5322000000,-59.211266,135.76111
5325000000,-59.642456,124.43464
5328000000,-59.749779,117.24703
5331000000,-59.974262,105.85282
5334000000,-60.036659,102.87096
5337000000,-59.965527,91.45224
5340000000,-60.028732,85.282799
5343000000,-59.94791,79.837662
5346000000,-59.84272,72.791145
5349000000,-59.813862,64.161163
5352000000,-59.53297,53.061104
5355000000,-59.380272,45.088524
5358000000,-59.627911,34.877602
5361000000,-59.369297,26.098204
5364000000,-59.405415,19.537622
5367000000,-59.634735,10.764013
5370000000,-60.064247,-0.90761799
5373000000,-59.780514,-6.1426883
5376000000,-59.786263,-14.859707
5379000000,-59.883476,-20.283445
5382000000,-59.925304,-29.58672
5385000000,-59.622128,-38.42865
5388000000,-59.888615,-44.570457
5391000000,-59.393425,-52.281563
5394000000,-59.053375,-61.751961
5397000000,-58.891846,-71.234245
5400000000,-59.04702,-81.761421
5403000000,-59.136459,-90.872787
5406000000,-58.994801,-100.60533
5409000000,-59.782154,-110.27326
5412000000,-59.716236,-118.24187
5415000000,-60.287716,-121.37781
5418000000,-59.759926,-129.34383
5421000000,-59.028645,-137.35167
5424000000,-58.988281,-150.06996
5427000000,-58.968445,-157.08273
5430000000,-59.171169,-167.06401
5433000000,-59.051334,-172.86147
5436000000,-59.176292,173.88577
5439000000,-58.809017,165.80502
5442000000,-59.359352,156.09158
5445000000,-59.628548,145.78947
5448000000,-59.734699,137.94678
5451000000,-60.007412,134.43843
5454000000,-59.842686,125.61304
5457000000,-59.238453,116.05269
5460000000,-58.9632,107.86179
5463000000,-59.856945,99.61795
5466000000,-59.001453,91.143005
5469000000,-59.475815,83.184723
5472000000,-59.102028,75.090378
5475000000,-59.365227,64.64843
5478000000,-59.757282,53.368195
5481000000,-59.772442,44.609585
5484000000,-59.689449,37.688759
5487000000,-59.885712,29.068699
5490000000,-60.326061,21.444475
5493000000,-59.664562,14.537088
5496000000,-60.141708,4.6485105
5499000000,-59.717941,-1.9518148
5502000000,-59.129341,-11.464261
5505000000,-59.305458,-20.396225
5508000000,-59.105381,-30.120237
5511000000,-59.169334,-41.978138
5514000000,-59.491882,-48.631416
5517000000,-59.656292,-61.63084
5520000000,-60.469643,-65.685783
5523000000,-60.424969,-72.75679
5526000000,-60.304974,-81.666023
5529000000,-60.368698,-91.293106
5532000000,-60.324791,-96.357162
5535000000,-59.906448,-103.09025
5538000000,-60.131981,-113.09254
5541000000,-60.284576,-122.39308
5544000000,-59.44733,-132.21959
5547000000,-60.049023,-138.62247
5550000000,-59.596226,-150.56317
5553000000,-59.924419,-158.86334
5556000000,-59.925827,-170.34285
5559000000,-60.541325,-178.17578
5562000000,-60.811779,171.50974
5565000000,-61.220375,171.76416
5568000000,-60.86787,165.84978
5571000000,-60.619942,158.21222
5574000000,-60.328644,146.12437
5577000000,-59.818008,135.92085
5580000000,-60.216629,125.99738
5583000000,-60.015285,117.01505
5586000000,-60.565624,105.86903
5589000000,-60.332718,101.9824
5592000000,-60.489426,93.405464
5595000000,-60.707397,84.280563
5598000000,-60.834595,74.864899
5601000000,-60.71888,69.400558
5604000000,-60.671989,58.011822
5607000000,-60.888298,50.327915
5610000000,-60.952656,46.810493
5613000000,-60.951515,37.334621
5616000000,-60.98111,28.533026
5619000000,-60.531956,18.712475
5622000000,-60.556419,8.7974863
5625000000,-60.935928,0.7442739
5628000000,-60.606018,-8.5349789
5631000000,-61.143936,-19.240705
5634000000,-60.922813,-25.256275
5637000000,-61.180012,-35.01469
5640000000,-60.906666,-41.988583
5643000000,-61.182693,-50.960331
5646000000,-61.851753,-57.871128
5649000000,-61.872059,-66.577682
5652000000,-61.331234,-73.934883
5655000000,-61.712906,-82.10247
5658000000,-62.335178,-87.096367
5661000000,-61.428253,-95.663109
5664000000,-61.424717,-110.10735
5667000000,-61.617237,-112.51864
5670000000,-61.334202,-123.41349
5673000000,-61.536354,-131.55434
5676000000,-62.045746,-144.67712
5679000000,-62.020607,-147.82402
5682000000,-62.258503,-157.00925
5685000000,-61.392899,-165.06133
5688000000,-61.939907,-169.62193
5691000000,-61.724178,-176.57475
5694000000,-61.866764,175.07411
5697000000,-61.884769,163.9142
5700000000,-61.3909,153.08299
5703000000,-61.589806,145.22823
5706000000,-61.829765,139.98701
5709000000,-62.160477,126.66348
5712000000,-62.290657,120.4992
5715000000,-61.568436,113.61726
5718000000,-61.986031,100.94357
5721000000,-62.460541,94.484306
5724000000,-62.3288,86.735168
5727000000,-62.511467,84.290283
5730000000,-62.89175,73.508797
5733000000,-62.02705,69.824905
5736000000,-61.217957,61.231293
5739000000,-61.444828,50.789356
5742000000,-60.827629,40.126423
5745000000,-61.580101,33.679646
5748000000,-61.434792,21.380129
5751000000,-61.189144,14.690558
5754000000,-61.795242,6.2831163
5757000000,-61.585285,-6.1040311
5760000000,-62.086254,-13.218693
5763000000,-62.139393,-21.465282
5766000000,-62.488972,-24.347591
5769000000,-62.225697,-34.849918
5772000000,-61.936012,-41.187008
5775000000,-61.413902,-50.980492
5778000000,-61.162636,-60.780876
5781000000,-61.33989,-70.40905
5784000000,-61.580624,-78.506683
5787000000,-61.413776,-86.659729
5790000000,-61.514103,-99.623466
5793000000,-62.105251,-105.04488
5796000000,-62.798569,-116.36319
5799000000,-62.171661,-125.61073
5802000000,-62.608364,-128.48048
5805000000,-62.605949,-133.64772
5808000000,-62.196415,-144.86086
5811000000,-62.562733,-150.8764
5814000000,-61.684429,-156.11258
5817000000,-61.898834,-165.90042
5820000000,-61.658947,-178.25285
5823000000,-61.301643,174.64749
5826000000,-61.859573,164.49971
5829000000,-61.798576,157.52612
5832000000,-62.250938,146.73071
5835000000,-62.472549,136.46745
5838000000,-61.924095,130.79732
5841000000,-62.703392,119.36852
5844000000,-62.619888,116.05642
5847000000,-62.3619,108.80476
5850000000,-63.151642,101.60651
5853000000,-61.748135,95.682404
5856000000,-61.476635,82.336159
5859000000,-61.963646,71.279793
5862000000,-62.180546,62.459862
5865000000,-61.980721,59.797657
5868000000,-61.533134,48.549164
5871000000,-62.443607,32.814198
5874000000,-62.45097,30.620636
5877000000,-62.447605,21.337666
5880000000,-63.371185,11.955476
5883000000,-62.270573,13.184157
5886000000,-62.589783,-0.81999981
5889000000,-61.976868,-11.392319
5892000000,-62.088795,-23.682795
5895000000,-62.020412,-28.127415
5898000000,-61.765175,-38.678471
5901000000,-62.007027,-50.797234
5904000000,-61.984928,-56.446621
5907000000,-61.725857,-66.639908
5910000000,-62.937714,-75.039963
5913000000,-63.503983,-86.473221
5916000000,-63.156975,-87.79171
5919000000,-63.839703,-96.89138
5922000000,-63.530365,-100.38375
5925000000,-64.348526,-106.83511
5928000000,-63.016983,-111.81673
5931000000,-63.001232,-123.2663
5934000000,-62.087173,-135.04289
5937000000,-62.407917,-143.71674
5940000000,-63.026943,-155.17749
5943000000,-63.038216,-165.26762
5946000000,-63.327335,-172.01321
5949000000,-64.380882,174.85234
5952000000,-63.010918,175.52106
5955000000,-63.830891,163.04395
5958000000,-63.641323,165.42606
5961000000,-63.112438,161.02304
5964000000,-63.508064,147.95317
5967000000,-62.353619,137.42989
5970000000,-62.376663,126.5322
5973000000,-62.704128,115.5235
5976000000,-62.89991,105.72659
5979000000,-63.183998,95.239159
5982000000,-64.13559,90.408905
5985000000,-63.80077,78.824081
5988000000,-63.638779,78.440941
5991000000,-63.658272,64.491562
5994000000,-63.493771,60.398277
5997000000,-63.620857,50.575104
6000000000,-64.321358,43.746571
END

