!CSV A.01.01
!Keysight Technologies,N5227B,US58420762,A.13.80.08
!Date: Monday, November 20, 2023 16:57:26
!Source: Standard

BEGIN CH1_DATA
Time(s),S21(DB),S21(DEG)
5e-009,-125.98852,53.703693
5.015e-009,-129.24059,82.26873
5.03e-009,-134.12524,117.27424
5.045e-009,-141.28035,-172.65193
5.06e-009,-137.18034,-74.841812
5.075e-009,-131.87476,-33.427414
5.09e-009,-128.71909,-3.6754127
5.105e-009,-126.65748,22.946945
5.12e-009,-125.24819,48.240368
5.135e-009,-124.28891,72.787178
5.15e-009,-123.672,96.802124
5.165e-009,-123.33875,120.35306
5.18e-009,-123.256,143.43225
5.195e-009,-123.4073,165.96411
5.21e-009,-123.78535,-172.19885
5.225e-009,-124.39098,-151.2998
5.24e-009,-125.22454,-131.74571
5.255e-009,-126.27055,-114.16906
5.27e-009,-127.45911,-99.522583
5.285e-009,-128.58612,-88.880577
5.3e-009,-129.24118,-82.373245
5.315e-009,-129.0197,-77.376678
5.33e-009,-127.99902,-69.84642
5.345e-009,-126.63334,-58.005329
5.36e-009,-125.27595,-42.416466
5.375e-009,-124.0825,-24.184456
5.39e-009,-123.0969,-4.1654453
5.405e-009,-122.32413,17.068434
5.42e-009,-121.75775,39.168606
5.435e-009,-121.39186,61.918369
5.45e-009,-121.223,85.181419
5.465e-009,-121.25597,108.89196
5.48e-009,-121.50311,133.02522
5.495e-009,-121.98743,157.61246
5.51e-009,-122.74857,-177.23819
5.525e-009,-123.85201,-151.30151
5.54e-009,-125.40987,-124.0688
5.555e-009,-127.61604,-94.283859
5.57e-009,-130.78369,-58.241558
5.585e-009,-134.6973,-3.4328861
5.6e-009,-134.21059,74.924461
5.615e-009,-129.73503,128.07468
5.63e-009,-126.09428,163.76921
5.645e-009,-123.38493,-166.27788
5.66e-009,-121.29641,-138.61256
5.675e-009,-119.63661,-112.03679
5.69e-009,-118.29325,-86.044952
5.705e-009,-117.19671,-60.384117
5.72e-009,-116.30274,-34.915287
5.735e-009,-115.58064,-9.5509958
5.75e-009,-115.01015,15.768969
5.765e-009,-114.5768,41.087482
5.78e-009,-114.26998,66.444496
5.795e-009,-114.08372,91.87381
5.81e-009,-114.01398,117.41461
5.825e-009,-114.05827,143.11038
5.84e-009,-114.21701,169.01126
5.855e-009,-114.49152,-164.81602
5.87e-009,-114.88426,-138.28381
5.885e-009,-115.39845,-111.27468
5.9e-009,-116.03613,-83.627731
5.915e-009,-116.79595,-55.118446
5.93e-009,-117.6666,-25.44153
5.945e-009,-118.61602,5.7999706
5.96e-009,-119.57156,39.047291
5.975e-009,-120.40016,74.578773
5.99e-009,-120.91505,112.10473
6.005e-009,-120.96384,150.41928
6.02e-009,-120.54958,-172.17688
6.035e-009,-119.82727,-136.86884
6.05e-009,-118.98336,-103.93926
6.065e-009,-118.15092,-73.09874
6.08e-009,-117.40208,-43.921078
6.095e-009,-116.76889,-16.02035
6.11e-009,-116.26317,10.890366
6.125e-009,-115.88705,37.012928
6.14e-009,-115.63937,62.483963
6.155e-009,-115.51779,87.384277
6.17e-009,-115.52013,111.75574
6.185e-009,-115.64515,135.60669
6.2e-009,-115.89228,158.91167
6.215e-009,-116.26023,-178.39133
6.23e-009,-116.74798,-156.39912
6.245e-009,-117.3503,-135.26265
6.26e-009,-118.05519,-115.18301
6.275e-009,-118.83661,-96.417473
6.29e-009,-119.644,-79.238518
6.305e-009,-120.39243,-63.839977
6.32e-009,-120.96282,-50.111248
6.335e-009,-121.2384,-37.441689
6.35e-009,-121.17012,-24.779556
6.365e-009,-120.81223,-11.064772
6.38e-009,-120.28431,4.302299
6.395e-009,-119.70723,21.418125
6.41e-009,-119.17028,40.084904
6.425e-009,-118.72589,60.031326
6.44e-009,-118.40613,81.000008
6.455e-009,-118.22792,102.79359
6.47e-009,-118.20486,125.26961
6.485e-009,-118.34869,148.33009
6.5e-009,-118.67558,171.94374
6.515e-009,-119.20666,-163.88928
6.53e-009,-119.97366,-139.08345
6.545e-009,-121.02514,-113.45575
6.56e-009,-122.43601,-86.60537
6.575e-009,-124.32238,-57.631424
6.59e-009,-126.84067,-24.358932
6.605e-009,-129.97188,19.056156
6.62e-009,-131.88489,81.481812
6.635e-009,-129.65477,143.46294
6.65e-009,-126.31454,-173.35904
6.665e-009,-123.5982,-139.88193
6.68e-009,-121.50777,-110.42442
6.695e-009,-119.88422,-82.851006
6.71e-009,-118.6132,-56.265903
6.725e-009,-117.62029,-30.244631
6.74e-009,-116.8569,-4.5579343
6.755e-009,-116.29249,20.928282
6.77e-009,-115.90658,46.305748
6.785e-009,-115.6864,71.63755
6.8e-009,-115.62588,96.977562
6.815e-009,-115.72404,122.37698
6.83e-009,-115.98483,147.88918
6.845e-009,-116.41773,173.58646
6.86e-009,-117.03832,-160.43661
6.875e-009,-117.87215,-134.03519
6.89e-009,-118.95451,-106.97178
6.905e-009,-120.33829,-78.828049
6.92e-009,-122.09333,-48.803562
6.935e-009,-124.28783,-15.219483
6.95e-009,-126.82702,25.48332
6.965e-009,-128.75616,78.034943
6.98e-009,-128.19176,135.55028
6.995e-009,-125.89828,-177.53404
7.01e-009,-123.60564,-140.66426
7.025e-009,-121.75462,-109.03953
7.04e-009,-120.33006,-80.094376
7.055e-009,-119.26077,-52.637455
7.07e-009,-118.49041,-26.082605
7.085e-009,-117.98158,-0.11714774
7.1e-009,-117.71334,25.432354
7.115e-009,-117.67831,50.666882
7.13e-009,-117.88239,75.637825
7.145e-009,-118.34608,100.36601
7.16e-009,-119.11077,124.8251
7.175e-009,-120.25134,148.93794
7.19e-009,-121.90662,172.49911
7.205e-009,-124.36102,-165.05737
7.22e-009,-128.32076,-145.81079
7.235e-009,-136.1201,-145.03314
7.25e-009,-135.14389,132.24525
7.265e-009,-127.19992,135.88905
7.28e-009,-122.85024,155.40773
7.295e-009,-119.92483,177.82027
7.31e-009,-117.75845,-158.759
7.325e-009,-116.07549,-134.8678
7.34e-009,-114.73612,-110.71731
7.355e-009,-113.66132,-86.400345
7.37e-009,-112.80173,-61.967377
7.385e-009,-112.1258,-37.441936
7.4e-009,-111.6125,-12.837428
7.415e-009,-111.24826,11.842822
7.43e-009,-111.02467,36.599464
7.445e-009,-110.93759,61.441959
7.46e-009,-110.98649,86.38224
7.475e-009,-111.1748,111.44231
7.49e-009,-111.50952,136.65245
7.505e-009,-112.00256,162.05995
7.52e-009,-112.67204,-172.2637
7.535e-009,-113.54488,-146.20514
7.55e-009,-114.6605,-119.57226
7.565e-009,-116.07733,-92.019569
7.58e-009,-117.88268,-62.867378
7.595e-009,-120.19465,-30.61936
7.61e-009,-123.0719,8.3371687
7.625e-009,-125.78369,61.348404
7.64e-009,-125.57851,125.02055
7.655e-009,-122.84261,175.70065
7.67e-009,-120.16288,-146.54507
7.685e-009,-118.06282,-114.73969
7.7e-009,-116.46066,-85.688095
7.715e-009,-115.24401,-58.05479
7.73e-009,-114.33405,-31.214716
7.745e-009,-113.67953,-4.8403988
7.76e-009,-113.24809,21.262049
7.775e-009,-113.02073,47.220276
7.79e-009,-112.98856,73.132935
7.805e-009,-113.15152,99.090042
7.82e-009,-113.51828,125.18803
7.835e-009,-114.10722,151.55258
7.85e-009,-114.94997,178.37233
7.865e-009,-116.09688,-154.03593
7.88e-009,-117.62522,-125.07548
7.895e-009,-119.64623,-93.476685
7.91e-009,-122.25072,-56.214531
7.925e-009,-124.99679,-6.5261397
7.94e-009,-125.4025,57.027
7.955e-009,-122.74286,111.18776
7.97e-009,-119.80689,150.84044
7.985e-009,-117.43502,-176.55492
8e-009,-115.58353,-147.17416
8.015e-009,-114.1341,-119.43932
8.03e-009,-112.99845,-92.635612
8.045e-009,-112.11804,-66.40152
8.06e-009,-111.45392,-40.533955
8.075e-009,-110.98108,-14.909728
8.09e-009,-110.68333,10.551868
8.105e-009,-110.55212,35.908665
8.12e-009,-110.5844,61.205502
8.135e-009,-110.78303,86.484055
8.15e-009,-111.15662,111.78468
8.165e-009,-111.72138,137.15831
8.18e-009,-112.50322,162.67036
8.195e-009,-113.54343,-171.57166
8.21e-009,-114.90849,-145.38463
8.225e-009,-116.70912,-118.40289
8.24e-009,-119.14797,-89.767082
8.255e-009,-122.62043,-56.934223
8.27e-009,-127.71305,-9.3720551
8.285e-009,-129.87088,79.045395
8.3e-009,-124.6955,141.94247
8.315e-009,-120.74898,178.46333
8.33e-009,-118.09767,-151.81503
8.345e-009,-116.22696,-124.51131
8.36e-009,-114.87646,-98.333855
8.375e-009,-113.91024,-72.78231
8.39e-009,-113.25315,-47.632294
8.405e-009,-112.86378,-22.772497
8.42e-009,-112.72144,1.848587
8.435e-009,-112.82157,26.242334
8.45e-009,-113.17409,50.386608
8.465e-009,-113.80646,74.218513
8.48e-009,-114.77014,97.598572
8.495e-009,-116.15662,120.24065
8.51e-009,-118.13497,141.47534
8.525e-009,-121.03523,159.42302
8.54e-009,-125.46021,166.91234
8.555e-009,-129.35121,136.74438
8.57e-009,-124.61226,110.93479
8.585e-009,-119.99519,120.08724
8.6e-009,-116.84086,138.51321
8.615e-009,-114.56273,159.96242
8.63e-009,-112.84783,-177.25877
8.645e-009,-111.53413,-153.76559
8.66e-009,-110.53117,-129.82822
8.675e-009,-109.78494,-105.57444
8.69e-009,-109.26359,-81.065544
8.705e-009,-108.94885,-56.326191
8.72e-009,-108.83283,-31.351074
8.735e-009,-108.91676,-6.1077609
8.75e-009,-109.21014,19.467545
8.765e-009,-109.73267,45.487946
8.78e-009,-110.51723,72.153206
8.795e-009,-111.61423,99.824532
8.81e-009,-113.09809,129.21112
8.825e-009,-115.0582,161.82448
8.84e-009,-117.48671,-158.91228
8.855e-009,-119.6086,-107.06635
8.87e-009,-119.17497,-46.790867
8.885e-009,-116.53506,2.7207954
8.9e-009,-113.82857,40.625057
8.915e-009,-111.61391,72.688995
8.93e-009,-109.86167,101.91806
8.945e-009,-108.48246,129.64508
8.96e-009,-107.40592,156.50981
8.975e-009,-106.58473,-177.14964
8.99e-009,-105.98837,-151.13608
9.005e-009,-105.59863,-125.32382
9.02e-009,-105.40667,-99.623268
9.035e-009,-105.41224,-73.96273
9.05e-009,-105.62315,-48.274281
9.065e-009,-106.05721,-22.481062
9.08e-009,-106.74503,3.5185621
9.095e-009,-107.7374,29.885944
9.11e-009,-109.11832,56.91193
9.125e-009,-111.03391,85.208664
9.14e-009,-113.75397,116.35293
9.155e-009,-117.75473,155.65906
9.17e-009,-122.22778,-136.45114
9.185e-009,-119.40746,-54.899696
9.2e-009,-114.82296,-9.2006941
9.215e-009,-111.67194,24.000685
9.23e-009,-109.49358,53.376781
9.245e-009,-107.96425,81.27317
9.26e-009,-106.92134,108.57065
9.275e-009,-106.28501,135.7263
9.29e-009,-106.02492,163.08363
9.305e-009,-106.14592,-168.97498
9.32e-009,-106.68587,-139.8642
9.335e-009,-107.71152,-108.47618
9.35e-009,-109.273,-72.41761
9.365e-009,-111.07268,-26.679401
9.38e-009,-111.40397,31.899992
9.395e-009,-108.87117,87.568237
9.41e-009,-105.49335,129.89236
9.425e-009,-102.4929,164.07016
9.44e-009,-99.986435,-165.69664
9.455e-009,-97.890434,-137.50616
9.47e-009,-96.122726,-110.48249
9.485e-009,-94.624252,-84.185204
9.5e-009,-93.355118,-58.37331
9.515e-009,-92.2892,-32.90657
9.53e-009,-91.410698,-7.7003427
9.545e-009,-90.711975,17.297255
9.56e-009,-90.192841,42.115578
9.575e-009,-89.860962,66.766846
9.59e-009,-89.733482,91.245949
9.605e-009,-89.840805,115.52592
9.62e-009,-90.234283,139.54364
9.635e-009,-91.002129,163.16319
9.65e-009,-92.306709,-173.9297
9.665e-009,-94.486183,-152.60715
9.68e-009,-98.405144,-136.33902
9.695e-009,-106.08984,-154.45956
9.71e-009,-100.07631,141.15726
9.725e-009,-92.989098,150.25471
9.74e-009,-88.492981,169.98305
9.755e-009,-85.145477,-167.79869
9.77e-009,-82.438271,-144.63522
9.785e-009,-80.143288,-121.01761
9.8e-009,-78.139214,-97.149178
9.815e-009,-76.353859,-73.128845
9.83e-009,-74.740692,-49.010292
9.845e-009,-73.267929,-24.825039
9.86e-009,-71.912819,-0.59264463
9.875e-009,-70.658508,23.674105
9.89e-009,-69.492119,47.966644
9.905e-009,-68.403587,72.278984
9.92e-009,-67.384857,96.606895
9.935e-009,-66.429413,120.94734
9.95e-009,-65.53186,145.29808
9.965e-009,-64.687706,169.6575
9.98e-009,-63.893143,-165.9756
9.995e-009,-63.144943,-141.60213
1.001e-008,-62.440319,-117.2227
1.0025e-008,-61.776855,-92.837746
1.004e-008,-61.152447,-68.447578
1.0055e-008,-60.56525,-44.052368
1.007e-008,-60.01363,-19.652185
1.0085e-008,-59.496143,4.7529693
1.01e-008,-59.011509,29.163191
1.0115e-008,-58.558586,53.578632
1.013e-008,-58.136337,77.999474
1.0145e-008,-57.743855,102.42599
1.016e-008,-57.380299,126.85848
1.0175e-008,-57.044933,151.29732
1.019e-008,-56.73708,175.74287
1.0205e-008,-56.456131,-159.80437
1.022e-008,-56.201542,-135.3439
1.0235e-008,-55.972813,-110.87518
1.025e-008,-55.769493,-86.397575
1.0265e-008,-55.591183,-61.910419
1.028e-008,-55.437508,-37.412979
1.0295e-008,-55.30814,-12.904462
1.031e-008,-55.202782,11.616032
1.0325e-008,-55.121155,36.149437
1.034e-008,-55.063023,60.696793
1.0355e-008,-55.028156,85.259232
1.037e-008,-55.016354,109.83799
1.0385e-008,-55.027431,134.43439
1.04e-008,-55.061222,159.0499
1.0415e-008,-55.117569,-176.31392
1.043e-008,-55.196316,-151.65532
1.0445e-008,-55.297318,-126.97247
1.046e-008,-55.420441,-102.26329
1.0475e-008,-55.565536,-77.525612
1.049e-008,-55.732449,-52.757042
1.0505e-008,-55.921017,-27.954994
1.052e-008,-56.131062,-3.1166627
1.0535e-008,-56.36237,21.760952
1.055e-008,-56.614704,46.681084
1.0565e-008,-56.887783,71.647224
1.058e-008,-57.181278,96.66304
1.0595e-008,-57.494789,121.73245
1.061e-008,-57.82785,146.85957
1.0625e-008,-58.179897,172.04869
1.064e-008,-58.550266,-162.69577
1.0655e-008,-58.938171,-137.3694
1.067e-008,-59.342682,-111.96772
1.0685e-008,-59.762722,-86.486504
1.07e-008,-60.197033,-60.921825
1.0715e-008,-60.644173,-35.270256
1.073e-008,-61.102501,-9.5291882
1.0745e-008,-61.570179,16.302956
1.076e-008,-62.045166,42.226349
1.0775e-008,-62.525249,68.239426
1.079e-008,-63.008072,94.338501
1.0805e-008,-63.49118,120.51743
1.082e-008,-63.972088,146.76733
1.0835e-008,-64.44838,173.07642
1.085e-008,-64.91777,-160.57013
1.0865e-008,-65.378273,-134.18987
1.088e-008,-65.828239,-107.80283
1.0895e-008,-66.266472,-81.43103
1.091e-008,-66.692307,-55.097569
1.0925e-008,-67.105629,-28.825882
1.094e-008,-67.506889,-2.6388071
1.0955e-008,-67.897026,23.442242
1.097e-008,-68.277443,49.398037
1.0985e-008,-68.649887,75.21209
1.1e-008,-69.016357,100.87103
1.1015e-008,-69.379013,126.36473
1.103e-008,-69.740051,151.68634
1.1045e-008,-70.101662,176.83208
1.106e-008,-70.465958,-158.19893
1.1075e-008,-70.834915,-133.40511
1.109e-008,-71.210396,-108.78254
1.1105e-008,-71.594124,-84.325508
1.112e-008,-71.987694,-60.026627
1.1135e-008,-72.392609,-35.877197
1.115e-008,-72.81028,-11.86737
1.1165e-008,-73.242134,12.013526
1.118e-008,-73.689568,35.776943
1.1195e-008,-74.154068,59.434864
1.121e-008,-74.637215,82.999695
1.1225e-008,-75.140732,106.48413
1.124e-008,-75.666534,129.90108
1.1255e-008,-76.216805,153.26357
1.127e-008,-76.793983,176.5847
1.1285e-008,-77.400909,-160.12236
1.13e-008,-78.040787,-136.84431
1.1315e-008,-78.717339,-113.56754
1.133e-008,-79.434883,-90.278008
1.1345e-008,-80.198441,-66.960884
1.136e-008,-81.013916,-43.599777
1.1375e-008,-81.888329,-20.176081
1.139e-008,-82.830154,3.3325243
1.1405e-008,-83.849739,26.954149
1.142e-008,-84.959984,50.726036
1.1435e-008,-86.177338,74.700356
1.145e-008,-87.523201,98.953941
1.1465e-008,-89.026245,123.60644
1.148e-008,-90.725784,148.85594
1.1495e-008,-92.676819,175.05374
1.151e-008,-94.955559,-157.12387
1.1525e-008,-97.65316,-126.24968
1.154e-008,-100.77552,-89.119232
1.1555e-008,-103.64608,-40.003632
1.157e-008,-104.10389,18.345377
1.1585e-008,-102.19949,67.052673
1.16e-008,-100.08194,103.82809
1.1615e-008,-98.400215,134.37245
1.163e-008,-97.145958,161.81935
1.1645e-008,-96.230873,-172.44664
1.166e-008,-95.582283,-147.78162
1.1675e-008,-95.148407,-123.86763
1.169e-008,-94.892746,-100.54443
1.1705e-008,-94.788902,-77.738525
1.172e-008,-94.816795,-55.429703
1.1735e-008,-94.959862,-33.635578
1.175e-008,-95.202797,-12.402165
1.1765e-008,-95.529228,8.1999912
1.178e-008,-95.919357,28.084187
1.1795e-008,-96.347206,47.158634
1.181e-008,-96.77832,65.35141
1.1825e-008,-97.168861,82.647392
1.184e-008,-97.468941,99.138382
1.1855e-008,-97.631554,115.05935
1.187e-008,-97.626366,130.77942
1.1885e-008,-97.450127,146.72432
1.19e-008,-97.127243,163.26645
1.1915e-008,-96.698891,-179.35529
1.193e-008,-96.209579,-161.04793
1.1945e-008,-95.697273,-141.82869
1.196e-008,-95.190048,-121.77753
1.1975e-008,-94.706299,-100.99773
1.199e-008,-94.25695,-79.594437
1.2005e-008,-93.847404,-57.662815
1.202e-008,-93.479576,-35.285496
1.2035e-008,-93.152992,-12.531469
1.205e-008,-92.865807,10.541168
1.2065e-008,-92.615372,33.884148
1.208e-008,-92.398476,57.456741
1.2095e-008,-92.211754,81.223854
1.211e-008,-92.051781,105.1553
1.2125e-008,-91.915176,129.22415
1.214e-008,-91.798683,153.40611
1.2155e-008,-91.699287,177.67934
1.217e-008,-91.614182,-157.97684
1.2185e-008,-91.540863,-133.58089
1.22e-008,-91.477173,-109.15031
1.2215e-008,-91.421234,-84.700668
1.223e-008,-91.371582,-60.246181
1.2245e-008,-91.32711,-35.799297
1.226e-008,-91.286995,-11.370473
1.2275e-008,-91.250854,13.03192
1.229e-008,-91.218521,37.401176
1.2305e-008,-91.190201,61.732979
1.232e-008,-91.166328,86.025063
1.2335e-008,-91.147606,110.27687
1.235e-008,-91.134956,134.48978
1.2365e-008,-91.129463,158.66685
1.238e-008,-91.132401,-177.18785
1.2395e-008,-91.145164,-153.06862
1.241e-008,-91.169289,-128.96925
1.2425e-008,-91.206398,-104.88249
1.244e-008,-91.258202,-80.80098
1.2455e-008,-91.326492,-56.716614
1.247e-008,-91.413124,-32.621529
1.2485e-008,-91.519974,-8.5073423
1.25e-008,-91.648979,15.634195
1.2515e-008,-91.802132,39.811253
1.253e-008,-91.981445,64.032379
1.2545e-008,-92.188957,88.305847
1.256e-008,-92.426788,112.64048
1.2575e-008,-92.697067,137.04547
1.259e-008,-93.00206,161.53026
1.2605e-008,-93.344025,-173.89478
1.262e-008,-93.72538,-149.21811
1.2635e-008,-94.148613,-124.427
1.265e-008,-94.616379,-99.506668
1.2665e-008,-95.131462,-74.440071
1.268e-008,-95.696861,-49.206993
1.2695e-008,-96.315742,-23.7836
1.271e-008,-96.991455,1.8594202
1.2725e-008,-97.727554,27.757923
1.274e-008,-98.527718,53.956192
1.2755e-008,-99.395584,80.50959
1.277e-008,-100.33463,107.48775
1.2785e-008,-101.34743,134.97954
1.28e-008,-102.43519,163.09731
1.2815e-008,-103.5959,-168.0173
1.283e-008,-104.82208,-138.18913
1.2845e-008,-106.09665,-107.21111
1.286e-008,-107.3877,-74.864212
1.2875e-008,-108.64259,-40.967899
1.289e-008,-109.78695,-5.4757361
1.2905e-008,-110.737,31.400959
1.292e-008,-111.42856,69.149406
1.2935e-008,-111.84885,107.09766
1.295e-008,-112.03929,144.68503
1.2965e-008,-112.06731,-178.34932
1.298e-008,-111.99176,-141.98643
1.2995e-008,-111.84431,-106.06029
1.301e-008,-111.62892,-70.394951
1.3025e-008,-111.33017,-34.907536
1.304e-008,-110.92588,0.35675409
1.3055e-008,-110.40195,35.228729
1.307e-008,-109.76041,69.481064
1.3085e-008,-109.02134,102.90353
1.31e-008,-108.21611,135.36736
1.3115e-008,-107.3791,166.83511
1.313e-008,-106.54025,-162.65511
1.3145e-008,-105.72302,-133.01958
1.316e-008,-104.94326,-104.15599
1.3175e-008,-104.21095,-75.961311
1.319e-008,-103.53154,-48.341076
1.3205e-008,-102.90751,-21.212446
1.322e-008,-102.33892,5.4953084
1.3235e-008,-101.82475,31.840935
1.325e-008,-101.36303,57.872719
1.3265e-008,-100.95139,83.631302
1.328e-008,-100.58697,109.14975
1.3295e-008,-100.26697,134.45564
1.331e-008,-99.988335,159.57187
1.3325e-008,-99.748093,-175.48221
1.334e-008,-99.543243,-150.69049
1.3355e-008,-99.370758,-126.03863
1.337e-008,-99.227615,-101.51489
1.3385e-008,-99.110947,-77.107666
1.34e-008,-99.017784,-52.807533
1.3415e-008,-98.945267,-28.605026
1.343e-008,-98.89061,-4.4915309
1.3445e-008,-98.851135,19.541786
1.346e-008,-98.824265,43.503094
1.3475e-008,-98.807594,67.400688
1.349e-008,-98.798828,91.242699
1.3505e-008,-98.796066,115.03716
1.352e-008,-98.797485,138.79228
1.3535e-008,-98.801697,162.51495
1.355e-008,-98.807487,-173.78767
1.3565e-008,-98.814064,-150.10966
1.358e-008,-98.820938,-126.44549
1.3595e-008,-98.827934,-102.79144
1.361e-008,-98.835213,-79.144188
1.3625e-008,-98.843239,-55.502403
1.364e-008,-98.85273,-31.865953
1.3655e-008,-98.864647,-8.2359467
1.367e-008,-98.880119,15.385031
1.3685e-008,-98.900482,38.992802
1.37e-008,-98.927124,62.582394
1.3715e-008,-98.961548,86.14724
1.373e-008,-99.005234,109.68031
1.3745e-008,-99.059715,133.17303
1.376e-008,-99.126389,156.61649
1.3775e-008,-99.206657,-179.99945
1.379e-008,-99.301727,-156.68488
1.3805e-008,-99.412628,-133.45128
1.382e-008,-99.54023,-110.30997
1.3835e-008,-99.685127,-87.273117
1.385e-008,-99.847595,-64.352585
1.3865e-008,-100.02766,-41.561089
1.388e-008,-100.22485,-18.910568
1.3895e-008,-100.43832,3.5870328
1.391e-008,-100.6668,25.921318
1.3925e-008,-100.90828,48.082493
1.394e-008,-101.16052,70.064201
1.3955e-008,-101.42055,91.862534
1.397e-008,-101.6851,113.47923
1.3985e-008,-101.95034,134.91904
1.4e-008,-102.21243,156.19591
1.4015e-008,-102.46756,177.32925
1.403e-008,-102.71233,-161.65376
1.4045e-008,-102.94395,-140.71826
1.406e-008,-103.16074,-119.82522
1.4075e-008,-103.36221,-98.930275
1.409e-008,-103.5492,-77.987961
1.4105e-008,-103.72402,-56.9547
1.412e-008,-103.89017,-35.789509
1.4135e-008,-104.05226,-14.456988
1.415e-008,-104.21519,7.0711555
1.4165e-008,-104.38463,28.817043
1.418e-008,-104.56598,50.797722
1.4195e-008,-104.76453,73.023491
1.421e-008,-104.98559,95.49894
1.4225e-008,-105.23341,118.22755
1.424e-008,-105.51202,141.20981
1.4255e-008,-105.8247,164.44461
1.427e-008,-106.17437,-172.07127
1.4285e-008,-106.56313,-148.33765
1.43e-008,-106.99245,-124.36041
1.4315e-008,-107.4632,-100.14058
1.433e-008,-107.97541,-75.68692
1.4345e-008,-108.52863,-51.004269
1.436e-008,-109.12087,-26.107313
1.4375e-008,-109.75022,-1.0142516
1.439e-008,-110.41302,24.241087
1.4405e-008,-111.1052,49.617199
1.442e-008,-111.82215,75.0429
1.4435e-008,-112.55837,100.43111
1.445e-008,-113.3078,125.65425
1.4465e-008,-114.06458,150.55782
1.448e-008,-114.82065,174.9407
1.4495e-008,-115.56537,-161.43195
1.451e-008,-116.27991,-138.82741
1.4525e-008,-116.93278,-117.50842
1.454e-008,-117.47279,-97.686066
1.4555e-008,-117.82897,-79.387451
1.457e-008,-117.92325,-62.345406
1.4585e-008,-117.70487,-45.955158
1.46e-008,-117.18068,-29.444727
1.4615e-008,-116.41524,-12.186441
1.463e-008,-115.49978,6.1421375
1.4645e-008,-114.51894,25.571529
1.466e-008,-113.53379,45.974636
1.4675e-008,-112.5835,67.169159
1.469e-008,-111.69056,88.977425
1.4705e-008,-110.86686,111.2517
1.472e-008,-110.11769,133.87115
1.4735e-008,-109.44485,156.74538
1.475e-008,-108.84825,179.80231
1.4765e-008,-108.32677,-157.01299
1.478e-008,-107.87891,-133.7426
1.4795e-008,-107.50323,-110.42223
1.481e-008,-107.1982,-87.078979
1.4825e-008,-106.96262,-63.737782
1.484e-008,-106.79549,-40.419983
1.4855e-008,-106.69621,-17.145777
1.487e-008,-106.66433,6.0654387
1.4885e-008,-106.69991,29.19227
1.49e-008,-106.80302,52.214653
1.4915e-008,-106.97424,75.106621
1.493e-008,-107.21436,97.840446
1.4945e-008,-107.52412,120.3833
1.496e-008,-107.90459,142.69614
1.4975e-008,-108.35658,164.72942
1.499e-008,-108.88048,-173.57498
1.5005e-008,-109.47585,-152.28954
1.502e-008,-110.14033,-131.50327
1.5035e-008,-110.8687,-111.32292
1.505e-008,-111.65082,-91.873528
1.5065e-008,-112.46903,-73.29052
1.508e-008,-113.2949,-55.700211
1.5095e-008,-114.08746,-39.182861
1.511e-008,-114.79388,-23.710951
1.5125e-008,-115.35972,-9.0875511
1.514e-008,-115.74461,5.0654879
1.5155e-008,-115.94015,19.23547
1.517e-008,-115.97379,33.866146
1.5185e-008,-115.89781,49.238319
1.52e-008,-115.76939,65.441193
1.5215e-008,-115.63752,82.41169
1.523e-008,-115.5387,99.998871
1.5245e-008,-115.49518,118.01329
1.526e-008,-115.51905,136.25717
1.5275e-008,-115.61357,154.52554
1.529e-008,-115.77361,172.61957
1.5305e-008,-115.9849,-169.65523
1.532e-008,-116.22249,-152.47632
1.5335e-008,-116.44994,-135.97159
1.535e-008,-116.61813,-120.18369
1.5365e-008,-116.67271,-105.00192
1.538e-008,-116.56643,-90.136368
1.5395e-008,-116.27674,-75.163475
1.541e-008,-115.81409,-59.634941
1.5425e-008,-115.21657,-43.204903
1.544e-008,-114.53482,-25.704676
1.5455e-008,-113.81636,-7.1112313
1.547e-008,-113.09787,12.500075
1.5485e-008,-112.40497,33.011799
1.55e-008,-111.75311,54.296806
1.5515e-008,-111.15066,76.237732
1.553e-008,-110.60129,98.731712
1.5545e-008,-110.10584,121.693
1.556e-008,-109.66324,145.04834
1.5575e-008,-109.27153,168.73721
1.559e-008,-108.92799,-167.29124
1.5605e-008,-108.63008,-143.0816
1.562e-008,-108.37502,-118.67345
1.5635e-008,-108.16029,-94.101807
1.565e-008,-107.98339,-69.398987
1.5665e-008,-107.84245,-44.59684
1.568e-008,-107.73569,-19.724991
1.5695e-008,-107.66173,5.1871996
1.571e-008,-107.61967,30.110821
1.5725e-008,-107.60896,55.017014
1.574e-008,-107.62936,79.875481
1.5755e-008,-107.68104,104.65729
1.577e-008,-107.76459,129.33171
1.5785e-008,-107.88066,153.8671
1.58e-008,-108.03014,178.22948
1.5815e-008,-108.21406,-157.61688
1.583e-008,-108.43325,-133.70927
1.5845e-008,-108.6883,-110.09047
1.586e-008,-108.97914,-86.807938
1.5875e-008,-109.30489,-63.913784
1.589e-008,-109.6634,-41.465733
1.5905e-008,-110.04979,-19.528374
1.592e-008,-110.45682,1.8313609
1.5935e-008,-110.87276,22.548702
1.595e-008,-111.28192,42.568562
1.5965e-008,-111.66241,61.863846
1.598e-008,-111.98849,80.453049
1.5995e-008,-112.23289,98.421448
1.601e-008,-112.37166,115.92929
1.6025e-008,-112.39059,133.19904
1.604e-008,-112.28924,150.48172
1.6055e-008,-112.08122,168.00746
1.607e-008,-111.79051,-174.05818
1.6085e-008,-111.44522,-155.62016
1.61e-008,-111.07265,-136.6573
1.6115e-008,-110.69587,-117.19378
1.613e-008,-110.33255,-97.287979
1.6145e-008,-109.99568,-77.006966
1.616e-008,-109.69387,-56.425327
1.6175e-008,-109.43256,-35.612888
1.619e-008,-109.21447,-14.634972
1.6205e-008,-109.04109,6.4479556
1.622e-008,-108.91192,27.581343
1.6235e-008,-108.82555,48.714634
1.625e-008,-108.77965,69.802193
1.6265e-008,-108.77075,90.802612
1.628e-008,-108.79468,111.67725
1.6295e-008,-108.84602,132.39233
1.631e-008,-108.9185,152.92052
1.6325e-008,-109.00464,173.2406
1.634e-008,-109.09609,-166.65884
1.6355e-008,-109.18375,-146.77583
1.637e-008,-109.25848,-127.0949
1.6385e-008,-109.3112,-107.58571
1.64e-008,-109.33419,-88.20005
1.6415e-008,-109.32191,-68.878021
1.643e-008,-109.27142,-49.551968
1.6445e-008,-109.18236,-30.150883
1.646e-008,-109.05785,-10.610518
1.6475e-008,-108.9028,9.1256247
1.649e-008,-108.72401,29.09593
1.6505e-008,-108.52882,49.327168
1.652e-008,-108.32478,69.829742
1.6535e-008,-108.1187,90.601952
1.655e-008,-107.91653,111.63296
1.6565e-008,-107.72346,132.90445
1.658e-008,-107.5431,154.39456
1.6595e-008,-107.37858,176.07852
1.661e-008,-107.23178,-162.06963
1.6625e-008,-107.10397,-140.07547
1.664e-008,-106.99582,-117.96379
1.6655e-008,-106.90738,-95.759125
1.667e-008,-106.83826,-73.483337
1.6685e-008,-106.78785,-51.158051
1.67e-008,-106.75507,-28.801754
1.6715e-008,-106.73889,-6.4322639
1.673e-008,-106.73796,15.935368
1.6745e-008,-106.75086,38.288292
1.676e-008,-106.77628,60.615417
1.6775e-008,-106.81279,82.90834
1.679e-008,-106.85918,105.16093
1.6805e-008,-106.91433,127.37051
1.682e-008,-106.97754,149.53542
1.6835e-008,-107.04833,171.65669
1.685e-008,-107.12669,-166.26152
1.6865e-008,-107.21304,-144.21481
1.688e-008,-107.30859,-122.19805
1.6895e-008,-107.41486,-100.20334
1.691e-008,-107.53432,-78.225822
1.6925e-008,-107.6701,-56.25935
1.694e-008,-107.82593,-34.300728
1.6955e-008,-108.00645,-12.348597
1.697e-008,-108.2172,9.5943336
1.6985e-008,-108.46452,31.521894
1.7e-008,-108.75581,53.421993
1.7015e-008,-109.09978,75.275566
1.703e-008,-109.50677,97.054459
1.7045e-008,-109.98895,118.7168
1.706e-008,-110.56142,140.20189
1.7075e-008,-111.24278,161.41977
1.709e-008,-112.05649,-177.76834
1.7105e-008,-113.03241,-157.58211
1.712e-008,-114.20785,-138.38826
1.7135e-008,-115.62448,-120.84233
1.715e-008,-117.30582,-106.14196
1.7165e-008,-119.15996,-96.455399
1.718e-008,-120.67389,-94.465492
1.7195e-008,-120.74811,-98.299408
1.721e-008,-119.14198,-98.450905
1.7225e-008,-116.93166,-90.545982
1.724e-008,-114.81843,-76.795372
1.7255e-008,-112.9696,-59.659012
1.727e-008,-111.3796,-40.560719
1.7285e-008,-110.00978,-20.270864
1.73e-008,-108.82304,0.78088635
1.7315e-008,-107.78967,22.340635
1.733e-008,-106.88664,44.249771
1.7345e-008,-106.09663,66.403053
1.736e-008,-105.40603,88.728134
1.7375e-008,-104.80451,111.1724
1.739e-008,-104.28385,133.69556
1.7405e-008,-103.8375,156.26494
1.742e-008,-103.46024,178.85504
1.7435e-008,-103.14786,-158.55823
1.745e-008,-102.89684,-135.99637
1.7465e-008,-102.70425,-113.47968
1.748e-008,-102.56763,-91.028351
1.7495e-008,-102.48482,-68.663658
1.751e-008,-102.45381,-46.407707
1.7525e-008,-102.4726,-24.284033
1.754e-008,-102.5391,-2.3185611
1.7555e-008,-102.65094,19.460297
1.757e-008,-102.80529,41.021141
1.7585e-008,-102.99853,62.330845
1.76e-008,-103.22598,83.352982
1.7615e-008,-103.4816,104.05115
1.763e-008,-103.75755,124.3901
1.7645e-008,-104.04384,144.34041
1.766e-008,-104.32832,163.88246
1.7675e-008,-104.59657,-176.98433
1.769e-008,-104.83293,-158.23514
1.7705e-008,-105.02161,-139.81255
1.772e-008,-105.14904,-121.62555
1.7735e-008,-105.2057,-103.5522
1.775e-008,-105.18837,-85.455605
1.7765e-008,-105.10032,-67.198891
1.778e-008,-104.95074,-48.663666
1.7795e-008,-104.75294,-29.761665
1.781e-008,-104.5218,-10.438766
1.7825e-008,-104.27203,9.326787
1.784e-008,-104.01687,29.533253
1.7855e-008,-103.76688,50.161636
1.787e-008,-103.53075,71.183594
1.7885e-008,-103.31455,92.565903
1.79e-008,-103.12293,114.27549
1.7915e-008,-102.95866,136.27992
1.793e-008,-102.82321,158.54866
1.7945e-008,-102.71756,-178.9429
1.796e-008,-102.64149,-156.21919
1.7975e-008,-102.59442,-133.3004
1.799e-008,-102.57535,-110.20339
1.8005e-008,-102.58288,-86.943146
1.802e-008,-102.61496,-63.533001
1.8035e-008,-102.66975,-39.983143
1.805e-008,-102.74504,-16.303999
1.8065e-008,-102.83837,7.4947071
1.808e-008,-102.94679,31.406242
1.8095e-008,-103.06773,55.420517
1.811e-008,-103.19814,79.529709
1.8125e-008,-103.33501,103.72675
1.814e-008,-103.4752,128.00037
1.8155e-008,-103.61583,152.34186
1.817e-008,-103.75396,176.73962
1.8185e-008,-103.88696,-158.81726
1.82e-008,-104.01238,-134.3412
1.8215e-008,-104.12837,-109.84442
1.823e-008,-104.23293,-85.340202
1.8245e-008,-104.3254,-60.840431
1.826e-008,-104.40479,-36.357296
1.8275e-008,-104.47129,-11.900493
1.829e-008,-104.52535,12.519227
1.8305e-008,-104.56768,36.895649
1.832e-008,-104.59995,61.223385
1.8335e-008,-104.62368,85.497978
1.835e-008,-104.64087,109.71872
1.8365e-008,-104.65369,133.88493
1.838e-008,-104.66471,157.99818
1.8395e-008,-104.67617,-177.93875
1.841e-008,-104.69044,-153.92093
1.8425e-008,-104.71001,-129.94522
1.844e-008,-104.73701,-106.00603
1.8455e-008,-104.77368,-82.098038
1.847e-008,-104.82203,-58.215847
1.8485e-008,-104.88369,-34.353664
1.85e-008,-104.96036,-10.506918
1.8515e-008,-105.05331,13.331219
1.853e-008,-105.16376,37.164913
1.8545e-008,-105.29237,61.000229
1.856e-008,-105.43979,84.842323
1.8575e-008,-105.60619,108.69677
1.859e-008,-105.79159,132.56996
1.8605e-008,-105.99537,156.46782
1.862e-008,-106.21679,-179.60274
1.8635e-008,-106.4545,-155.63443
1.865e-008,-106.70673,-131.61833
1.8665e-008,-106.97103,-107.54622
1.868e-008,-107.24473,-83.406738
1.8695e-008,-107.52406,-59.191185
1.871e-008,-107.80509,-34.887848
1.8725e-008,-108.08284,-10.485543
1.874e-008,-108.35194,14.025528
1.8755e-008,-108.60626,38.654396
1.877e-008,-108.83951,63.406868
1.8785e-008,-109.045,88.285866
1.88e-008,-109.21626,113.29018
1.8815e-008,-109.34723,138.41142
1.883e-008,-109.43258,163.63573
1.8845e-008,-109.46867,-171.05431
1.886e-008,-109.45309,-145.68369
1.8875e-008,-109.38538,-120.27721
1.889e-008,-109.26729,-94.863014
1.8905e-008,-109.102,-69.464005
1.892e-008,-108.89442,-44.104328
1.8935e-008,-108.65074,-18.798697
1.895e-008,-108.37753,6.4407816
1.8965e-008,-108.08205,31.607677
1.898e-008,-107.77112,56.7006
1.8995e-008,-107.45171,81.721924
1.901e-008,-107.12997,106.67752
1.9025e-008,-106.81154,131.57266
1.904e-008,-106.50142,156.41681
1.9055e-008,-106.20396,-178.78227
1.907e-008,-105.9229,-154.01524
1.9085e-008,-105.66146,-129.27443
1.91e-008,-105.42225,-104.55192
1.9115e-008,-105.2075,-79.841042
1.913e-008,-105.01922,-55.134605
1.9145e-008,-104.85881,-30.427301
1.916e-008,-104.72768,-5.7136168
1.9175e-008,-104.62682,19.010761
1.919e-008,-104.55721,43.750328
1.9205e-008,-104.51957,68.508423
1.922e-008,-104.5145,93.288246
1.9235e-008,-104.54253,118.09269
1.925e-008,-104.60433,142.92375
1.9265e-008,-104.70004,167.78395
1.928e-008,-104.8303,-167.32541
1.9295e-008,-104.99535,-142.40289
1.931e-008,-105.19572,-117.44805
1.9325e-008,-105.43168,-92.459976
1.934e-008,-105.70382,-67.439415
1.9355e-008,-106.01257,-42.386814
1.937e-008,-106.35857,-17.304382
1.9385e-008,-106.74255,7.8063045
1.94e-008,-107.16537,32.940857
1.9415e-008,-107.62801,58.09528
1.943e-008,-108.13181,83.261795
1.9445e-008,-108.67834,108.43342
1.946e-008,-109.26966,133.59813
1.9475e-008,-109.90828,158.74277
1.949e-008,-110.59714,-176.15042
1.9505e-008,-111.34051,-151.10509
1.952e-008,-112.14314,-126.1498
1.9535e-008,-113.01157,-101.32294
1.955e-008,-113.95364,-76.675209
1.9565e-008,-114.97997,-52.276688
1.958e-008,-116.10332,-28.222944
1.9595e-008,-117.34031,-4.6569176
1.961e-008,-118.7113,18.21496
1.9625e-008,-120.23996,40.053642
1.964e-008,-121.94761,60.318493
1.9655e-008,-123.83393,78.100891
1.967e-008,-125.81416,91.965736
1.9685e-008,-127.56028,100.27553
1.97e-008,-128.41061,103.59301
1.9715e-008,-127.9614,107.18193
1.973e-008,-126.69888,115.8607
1.9745e-008,-125.26338,129.75293
1.976e-008,-123.94397,147.18785
1.9775e-008,-122.81491,166.78992
1.979e-008,-121.87164,-172.2973
1.9805e-008,-121.09446,-150.57826
1.982e-008,-120.46079,-128.37088
1.9835e-008,-119.9516,-105.86871
1.985e-008,-119.55123,-83.203445
1.9865e-008,-119.24802,-60.463272
1.988e-008,-119.03142,-37.712521
1.9895e-008,-118.8941,-14.999358
1.991e-008,-118.82944,7.6469016
1.9925e-008,-118.83241,30.197666
1.994e-008,-118.89903,52.637093
1.9955e-008,-119.0264,74.952377
1.997e-008,-119.21226,97.13623
1.9985e-008,-119.45456,119.18608
2e-008,-119.75467,141.1066
END

