!CSV A.01.01
!Keysight Technologies,N5227B,US58420762,A.13.80.08
!Date: Tuesday, November 21, 2023 09:43:37
!Source: Standard

BEGIN CH1_DATA
Freq(Hz),S21(DB),S21(DEG)
3000000000,-56.130341,-100.35689
3003000000,-56.256416,-108.84056
3006000000,-56.116745,-116.83939
3009000000,-55.983517,-124.8163
3012000000,-55.804375,-134.24376
3015000000,-55.707355,-142.94273
3018000000,-55.591766,-152.9615
3021000000,-55.553429,-162.34599
3024000000,-55.745949,-171.4817
3027000000,-55.648289,-179.86823
3030000000,-55.734982,172.06444
3033000000,-55.573376,162.63091
3036000000,-55.53653,153.52016
3039000000,-55.386127,145.02628
3042000000,-55.384754,136.22414
3045000000,-55.176277,126.97841
3048000000,-55.352718,117.14362
3051000000,-55.309311,107.56391
3054000000,-55.254417,98.61042
3057000000,-55.233578,88.821945
3060000000,-55.200897,79.367134
3063000000,-55.281361,70.178497
3066000000,-55.221802,61.137421
3069000000,-55.35379,51.332638
3072000000,-55.485985,43.194267
3075000000,-55.551479,34.315075
3078000000,-55.410194,26.723978
3081000000,-55.515903,17.697918
3084000000,-55.338501,9.2811565
3087000000,-55.232559,0.67666245
3090000000,-55.096821,-9.586153
3093000000,-55.197662,-19.510954
3096000000,-55.26783,-29.381279
3099000000,-55.208775,-38.3232
3102000000,-55.53857,-48.522171
3105000000,-55.623894,-56.027615
3108000000,-55.834766,-63.135075
3111000000,-55.873062,-71.063057
3114000000,-55.639317,-79.243706
3117000000,-55.672676,-87.804146
3120000000,-55.532688,-95.78968
3123000000,-55.347477,-104.46363
3126000000,-55.039677,-114.03259
3129000000,-55.019234,-123.96007
3132000000,-55.035439,-133.35487
3135000000,-55.02301,-143.65913
3138000000,-55.171597,-152.72308
3141000000,-55.353237,-161.09406
3144000000,-55.25005,-167.8452
3147000000,-54.933277,-175.95665
3150000000,-54.944263,175.0694
3153000000,-54.623363,164.66722
3156000000,-54.501984,154.98993
3159000000,-54.542614,145.51743
3162000000,-54.526207,135.05746
3165000000,-54.732018,125.86517
3168000000,-54.815933,116.69147
3171000000,-54.712116,106.91624
3174000000,-54.985439,98.196861
3177000000,-55.026814,89.779625
3180000000,-55.009174,81.594353
3183000000,-54.987869,72.849632
3186000000,-54.819469,65.885826
3189000000,-54.71764,56.311924
3192000000,-54.691566,45.930943
3195000000,-54.695103,35.806133
3198000000,-54.71719,26.703787
3201000000,-54.815678,17.602352
3204000000,-54.786125,9.0723333
3207000000,-54.955387,0.33625296
3210000000,-54.963001,-8.2273464
3213000000,-54.895527,-17.007383
3216000000,-55.070866,-25.563086
3219000000,-54.924767,-33.514194
3222000000,-54.741493,-42.763126
3225000000,-54.556084,-51.393776
3228000000,-54.578659,-62.016029
3231000000,-54.665207,-71.184341
3234000000,-54.78231,-80.741623
3237000000,-54.883671,-89.025742
3240000000,-54.853321,-97.263222
3243000000,-54.761089,-106.92094
3246000000,-54.770138,-115.70089
3249000000,-54.565357,-124.5931
3252000000,-54.580521,-133.69981
3255000000,-54.554085,-143.56908
3258000000,-54.689404,-153.12134
3261000000,-54.511967,-160.8255
3264000000,-54.392105,-171.04016
3267000000,-54.492275,178.92526
3270000000,-54.762726,168.63806
3273000000,-54.741795,160.34656
3276000000,-55.002266,152.23119
3279000000,-54.924252,143.27573
3282000000,-54.930199,133.89314
3285000000,-54.972977,125.36338
3288000000,-55.084385,116.69657
3291000000,-54.906757,109.14088
3294000000,-54.934643,100.11174
3297000000,-54.900238,91.332298
3300000000,-54.920624,82.303818
3303000000,-54.843178,71.976418
3306000000,-54.890976,62.421986
3309000000,-55.012714,53.363731
3312000000,-55.29546,46.023525
3315000000,-55.333488,37.345413
3318000000,-55.327038,29.719017
3321000000,-55.058525,21.955509
3324000000,-55.022858,12.365462
3327000000,-54.920147,4.7407861
3330000000,-54.891521,-5.597507
3333000000,-54.663425,-15.325097
3336000000,-54.666363,-25.527517
3339000000,-54.742977,-34.927872
3342000000,-55.033207,-44.208935
3345000000,-55.119389,-52.940918
3348000000,-55.203056,-61.40694
3351000000,-55.163902,-68.904572
3354000000,-55.229095,-76.790863
3357000000,-54.93409,-84.598961
3360000000,-54.754539,-93.643867
3363000000,-54.530071,-103.2997
3366000000,-54.311565,-113.52025
3369000000,-54.361732,-124.60835
3372000000,-54.459797,-134.96509
3375000000,-54.9044,-144.40602
3378000000,-54.831699,-152.72491
3381000000,-55.021751,-160.82718
3384000000,-54.88076,-170.48062
3387000000,-54.96212,-179.74243
3390000000,-55.00124,172.03862
3393000000,-55.133644,162.64148
3396000000,-55.133984,154.41878
3399000000,-55.08461,145.30048
3402000000,-54.977917,135.6384
3405000000,-54.892124,127.76126
3408000000,-54.79044,116.91125
3411000000,-55.077545,107.13371
3414000000,-55.139332,97.550919
3417000000,-55.278362,89.471375
3420000000,-55.441551,80.082611
3423000000,-55.590309,72.636673
3426000000,-55.651196,63.63488
3429000000,-55.601425,55.94622
3432000000,-55.379551,46.553963
3435000000,-55.464043,37.954086
3438000000,-55.442108,28.073957
3441000000,-55.437031,20.06023
3444000000,-55.765961,11.0323
3447000000,-55.483322,3.3097334
3450000000,-55.436169,-7.1429219
3453000000,-55.511974,-17.654995
3456000000,-55.639961,-26.37228
3459000000,-55.646347,-35.081165
3462000000,-55.970882,-44.695728
3465000000,-55.967873,-52.00148
3468000000,-55.861443,-60.460335
3471000000,-55.863327,-68.857323
3474000000,-55.725876,-78.998573
3477000000,-55.927155,-88.224533
3480000000,-55.937141,-96.753433
3483000000,-55.904915,-104.74614
3486000000,-55.830753,-113.89688
3489000000,-56.061546,-122.42524
3492000000,-56.052628,-131.93008
3495000000,-56.019806,-141.77931
3498000000,-56.156372,-150.78023
3501000000,-56.422482,-159.1846
3504000000,-56.379894,-169.21217
3507000000,-56.583935,-177.88177
3510000000,-56.730324,174.90871
3513000000,-56.920494,167.7746
3516000000,-56.747849,161.96263
3519000000,-56.611652,153.09796
3522000000,-56.387741,144.76321
3525000000,-56.039455,135.07704
3528000000,-56.070145,123.67362
3531000000,-56.084274,114.34657
3534000000,-56.260582,104.64104
3537000000,-56.342621,95.095718
3540000000,-56.425316,86.869919
3543000000,-56.608398,78.342484
3546000000,-56.675076,69.041603
3549000000,-56.687798,61.330994
3552000000,-56.682869,52.271946
3555000000,-56.880783,44.245171
3558000000,-56.695812,37.208168
3561000000,-56.461948,28.209547
3564000000,-56.283459,18.220469
3567000000,-56.317108,8.1698809
3570000000,-56.632725,-1.9721606
3573000000,-56.656048,-12.645677
3576000000,-57.162224,-20.723253
3579000000,-57.231392,-27.952137
3582000000,-57.420769,-35.724808
3585000000,-57.294632,-44.319134
3588000000,-57.279346,-50.58762
3591000000,-57.278061,-59.257259
3594000000,-57.158127,-67.04586
3597000000,-57.082741,-76.177063
3600000000,-56.984802,-86.199127
3603000000,-56.733345,-94.383583
3606000000,-56.848274,-104.1338
3609000000,-56.862434,-114.33517
3612000000,-56.998508,-123.83151
3615000000,-56.950161,-131.62613
3618000000,-57.12851,-140.41925
3621000000,-57.292686,-149.42624
3624000000,-57.423271,-156.67285
3627000000,-57.491623,-165.67815
3630000000,-57.108768,-173.28876
3633000000,-57.045708,178.71996
3636000000,-57.148346,168.97366
3639000000,-56.957119,160.23816
3642000000,-56.97028,151.47243
3645000000,-56.959148,141.71822
3648000000,-57.086971,132.90239
3651000000,-57.062672,123.5703
3654000000,-57.151619,115.43507
3657000000,-57.119465,105.49603
3660000000,-57.002476,97.222939
3663000000,-57.293438,87.785004
3666000000,-57.505695,79.952988
3669000000,-57.674232,71.796661
3672000000,-57.352093,64.708282
3675000000,-57.385181,55.941936
3678000000,-57.361366,46.708492
3681000000,-57.21405,38.634987
3684000000,-57.2341,29.734026
3687000000,-57.075825,20.184053
3690000000,-57.045139,12.209372
3693000000,-57.192974,1.0300711
3696000000,-57.300449,-8.4126816
3699000000,-57.316376,-17.438869
3702000000,-57.298096,-25.347689
3705000000,-57.624718,-35.025288
3708000000,-57.778671,-42.963314
3711000000,-57.843952,-50.5238
3714000000,-57.842018,-55.858791
3717000000,-57.508266,-63.650124
3720000000,-57.20084,-72.248863
3723000000,-56.714108,-83.620667
3726000000,-56.877731,-93.576584
3729000000,-56.979446,-104.49239
3732000000,-56.783573,-115.67747
3735000000,-57.018757,-123.6413
3738000000,-57.451412,-134.65091
3741000000,-57.578819,-142.68681
3744000000,-57.859383,-149.81194
3747000000,-57.963264,-156.92249
3750000000,-57.974983,-163.90823
3753000000,-57.68639,-172.88518
3756000000,-57.44043,179.55322
3759000000,-57.262329,169.29257
3762000000,-57.251492,161.61229
3765000000,-57.158989,151.42278
3768000000,-57.499195,140.88895
3771000000,-57.582829,130.35939
3774000000,-57.576103,122.34939
3777000000,-57.761978,113.7647
3780000000,-58.072575,104.25828
3783000000,-58.03236,96.543404
3786000000,-58.145176,90.753677
3789000000,-58.088444,84.018059
3792000000,-57.984127,74.333069
3795000000,-57.645409,67.187569
3798000000,-57.533218,59.806942
3801000000,-57.529308,49.109261
3804000000,-57.318218,39.010612
3807000000,-57.282646,30.140678
3810000000,-57.483395,19.067142
3813000000,-57.620426,7.8237734
3816000000,-57.408604,0.92305613
3819000000,-57.742748,-8.9898243
3822000000,-58.210377,-16.105783
3825000000,-58.065315,-23.092022
3828000000,-58.066803,-30.037704
3831000000,-57.817566,-39.455498
3834000000,-57.885048,-45.919445
3837000000,-57.610348,-56.777683
3840000000,-57.483963,-65.920349
3843000000,-57.175415,-75.870132
3846000000,-57.199337,-86.038551
3849000000,-57.306011,-95.668602
3852000000,-57.553051,-106.75188
3855000000,-57.722313,-117.03497
3858000000,-58.08691,-125.39438
3861000000,-58.647781,-131.27821
3864000000,-58.54108,-136.43271
3867000000,-58.26144,-144.32811
3870000000,-58.146152,-151.68434
3873000000,-57.721371,-160.68274
3876000000,-57.614429,-169.84431
3879000000,-57.291965,179.40347
3882000000,-57.605782,168.62256
3885000000,-57.212856,158.5641
3888000000,-57.688362,148.30949
3891000000,-58.011295,139.89862
3894000000,-57.972778,130.9942
3897000000,-58.236687,126.22451
3900000000,-58.043575,117.13832
3903000000,-58.090965,109.55817
3906000000,-57.830025,101.7407
3909000000,-57.826691,92.73497
3912000000,-57.795288,83.15538
3915000000,-57.689896,74.28019
3918000000,-57.743114,64.391808
3921000000,-57.591347,54.586308
3924000000,-57.454117,43.823845
3927000000,-57.622696,34.979088
3930000000,-57.773365,26.842436
3933000000,-58.075993,16.722967
3936000000,-58.065071,7.8544478
3939000000,-58.093128,-1.4014614
3942000000,-58.365105,-7.1644406
3945000000,-58.255905,-15.611594
3948000000,-58.283989,-24.99242
3951000000,-58.31073,-31.803841
3954000000,-58.048691,-39.983669
3957000000,-58.048519,-50.250126
3960000000,-58.0429,-60.021614
3963000000,-58.155502,-70.153755
3966000000,-57.955791,-78.800461
3969000000,-58.158768,-89.304771
3972000000,-58.43224,-97.85878
3975000000,-58.690807,-106.08101
3978000000,-58.995235,-113.79035
3981000000,-58.908512,-122.92951
3984000000,-58.958378,-129.54491
3987000000,-58.809566,-135.90939
3990000000,-58.783298,-144.52821
3993000000,-58.636452,-151.65401
3996000000,-58.339073,-162.10306
3999000000,-58.426968,-171.79582
4002000000,-58.343487,178.23956
4005000000,-58.332161,168.06621
4008000000,-58.370426,159.82159
4011000000,-58.683319,151.76579
4014000000,-58.953716,142.62325
4017000000,-58.786774,135.34317
4020000000,-58.780521,128.8002
4023000000,-58.521996,120.27485
4026000000,-58.613087,110.16705
4029000000,-58.405441,102.15943
4032000000,-58.478111,93.551178
4035000000,-58.38401,84.300957
4038000000,-58.403515,74.960602
4041000000,-58.216888,66.426155
4044000000,-58.295849,57.25436
4047000000,-58.526493,46.876041
4050000000,-58.374626,36.4473
4053000000,-58.848019,29.24115
4056000000,-58.794312,18.805227
4059000000,-58.990238,12.27799
4062000000,-59.107418,6.0542283
4065000000,-59.195549,-2.6593254
4068000000,-59.042297,-10.718575
4071000000,-58.924305,-17.03161
4074000000,-58.484119,-27.443134
4077000000,-58.34483,-35.651512
4080000000,-58.316051,-45.758144
4083000000,-58.455433,-56.120907
4086000000,-58.383919,-64.825928
4089000000,-58.675884,-76.974907
4092000000,-58.862236,-81.809898
4095000000,-59.159893,-91.890236
4098000000,-59.2827,-97.512428
4101000000,-59.146988,-106.78462
4104000000,-59.002884,-113.63549
4107000000,-58.846272,-122.9315
4110000000,-58.647751,-129.88812
4113000000,-58.223526,-139.1266
4116000000,-58.253605,-150.45844
4119000000,-58.369484,-160.05481
4122000000,-58.217793,-171.15991
4125000000,-58.529831,-179.584
4128000000,-58.617508,171.93614
4131000000,-59.258068,164.26976
4134000000,-59.12561,158.35634
4137000000,-59.122566,148.22578
4140000000,-58.959019,141.85622
4143000000,-58.650673,132.65961
4146000000,-58.88044,124.33443
4149000000,-58.600826,114.203
4152000000,-58.707417,106.17853
4155000000,-58.58881,96.937515
4158000000,-59.046814,88.612267
4161000000,-58.778214,80.33667
4164000000,-58.891766,70.573242
4167000000,-59.044781,61.959789
4170000000,-59.010609,54.176723
4173000000,-58.940842,44.878647
4176000000,-58.653313,38.81942
4179000000,-58.821079,30.42975
4182000000,-59.067245,23.996813
4185000000,-58.670933,14.592817
4188000000,-58.471943,5.7267284
4191000000,-58.184383,-0.68680531
4194000000,-58.010101,-9.1399965
4197000000,-57.905079,-20.748335
4200000000,-57.65345,-32.895859
4203000000,-57.787872,-41.401493
4206000000,-57.881313,-50.045551
4209000000,-57.895058,-58.406712
4212000000,-57.862892,-66.786026
4215000000,-57.620544,-73.851944
4218000000,-57.909752,-84.530548
4221000000,-57.79071,-93.1334
4224000000,-57.636665,-101.02027
4227000000,-57.545486,-109.493
4230000000,-57.309265,-118.79588
4233000000,-57.156433,-128.62486
4236000000,-57.193844,-139.67735
4239000000,-57.117363,-150.36349
4242000000,-57.391369,-159.78151
4245000000,-57.573002,-168.95229
4248000000,-57.469051,-177.78064
4251000000,-57.755592,173.87994
4254000000,-57.678234,164.93503
4257000000,-57.640606,156.15407
4260000000,-57.895592,148.24138
4263000000,-57.823135,140.85291
4266000000,-57.561409,131.34604
4269000000,-57.56382,120.45517
4272000000,-57.322151,113.16118
4275000000,-57.533661,103.24279
4278000000,-57.549377,93.097618
4281000000,-57.493977,82.972832
4284000000,-57.848831,73.926674
4287000000,-57.775379,64.385368
4290000000,-58.272659,54.993431
4293000000,-58.348621,46.664799
4296000000,-58.588078,39.054775
4299000000,-58.018467,33.487221
4302000000,-58.009586,24.341499
4305000000,-57.910191,15.142624
4308000000,-57.96991,5.2056112
4311000000,-57.71701,-3.7744873
4314000000,-57.721291,-14.278872
4317000000,-58.038773,-21.817478
4320000000,-57.768867,-31.103043
4323000000,-58.195061,-40.904808
4326000000,-58.28627,-50.703712
4329000000,-58.137474,-59.463947
4332000000,-58.419838,-67.052811
4335000000,-58.496822,-75.030228
4338000000,-58.223331,-83.283646
4341000000,-58.340191,-90.835419
4344000000,-58.53989,-99.962402
4347000000,-58.6007,-107.71075
4350000000,-58.513607,-117.86652
4353000000,-58.551537,-125.95887
4356000000,-58.727024,-136.28862
4359000000,-58.629776,-143.94566
4362000000,-58.801579,-151.94234
4365000000,-58.704926,-160.05782
4368000000,-58.78093,-168.95239
4371000000,-58.608585,-176.66862
4374000000,-58.824802,174.57899
4377000000,-58.422459,165.83167
4380000000,-58.77504,156.21869
4383000000,-58.855385,149.51338
4386000000,-58.816803,141.16322
4389000000,-58.568752,134.96181
4392000000,-58.798965,125.27418
4395000000,-58.270184,115.33642
4398000000,-58.391178,108.08512
4401000000,-58.243969,97.489624
4404000000,-58.047585,88.711998
4407000000,-58.342049,79.228447
4410000000,-58.356781,71.63308
4413000000,-58.112839,63.037292
4416000000,-58.268665,55.026421
4419000000,-58.006844,44.938751
4422000000,-58.008663,37.364426
4425000000,-58.092609,26.92943
4428000000,-58.171852,20.001724
4431000000,-58.017429,10.827
4434000000,-57.90419,2.8001595
4437000000,-57.539253,-7.6097007
4440000000,-57.579025,-17.458696
4443000000,-57.959789,-27.334763
4446000000,-57.977444,-36.008766
4449000000,-58.133629,-45.41935
4452000000,-58.264748,-54.429684
4455000000,-58.591496,-59.961437
4458000000,-58.307167,-66.76693
4461000000,-58.106869,-74.978729
4464000000,-57.967827,-86.152008
4467000000,-57.911774,-93.321083
4470000000,-57.856873,-103.47337
4473000000,-57.899658,-110.12978
4476000000,-57.57859,-118.72242
4479000000,-57.743961,-128.00104
4482000000,-57.462208,-138.28186
4485000000,-57.693562,-149.64255
4488000000,-57.654644,-158.52701
4491000000,-57.516716,-167.14009
4494000000,-57.748875,-173.84637
4497000000,-57.788536,178.80142
4500000000,-57.708752,169.48793
4503000000,-57.478462,161.03481
4506000000,-57.564987,152.10338
4509000000,-57.32877,144.04276
4512000000,-57.263786,135.02936
4515000000,-57.101494,125.38042
4518000000,-56.806274,114.50702
4521000000,-57.271629,102.54508
4524000000,-57.257549,94.391602
4527000000,-57.402885,84.713852
4530000000,-57.526917,76.845749
4533000000,-57.293812,71.425629
4536000000,-57.0714,60.549286
4539000000,-57.007977,51.323017
4542000000,-57.137627,41.441216
4545000000,-56.930679,32.380665
4548000000,-57.147049,24.345428
4551000000,-56.921291,13.868808
4554000000,-57.133255,4.8153272
4557000000,-56.990799,-5.2104874
4560000000,-57.290039,-14.437118
4563000000,-57.329678,-21.230036
4566000000,-57.626854,-29.350166
4569000000,-57.436958,-38.425812
4572000000,-57.366787,-50.520756
4575000000,-57.220985,-56.758495
4578000000,-57.316929,-66.240868
4581000000,-57.628796,-76.77034
4584000000,-57.763638,-85.323959
4587000000,-57.75922,-93.404282
4590000000,-57.907406,-100.81601
4593000000,-57.773315,-109.88605
4596000000,-57.682259,-118.77306
4599000000,-57.815083,-128.21799
4602000000,-57.793453,-137.60867
4605000000,-57.686325,-145.35362
4608000000,-57.64518,-152.77391
4611000000,-57.639175,-160.55913
4614000000,-57.698418,-170.20836
4617000000,-57.843204,-179.20178
4620000000,-57.832493,172.69792
4623000000,-57.852028,164.01765
4626000000,-57.880737,155.05316
4629000000,-57.681229,147.24355
4632000000,-57.542446,137.95352
4635000000,-57.648724,130.37767
4638000000,-57.237404,121.17151
4641000000,-57.336052,110.40488
4644000000,-57.300674,100.22662
4647000000,-57.600891,90.065872
4650000000,-57.620369,80.393517
4653000000,-57.826706,72.852715
4656000000,-57.984165,65.433708
4659000000,-58.174332,53.794224
4662000000,-58.086075,48.156677
4665000000,-58.163021,38.707119
4668000000,-57.837936,33.577606
4671000000,-57.859818,24.984852
4674000000,-57.8176,14.663093
4677000000,-57.591003,7.6384516
4680000000,-57.691219,-3.0174334
4683000000,-57.441982,-12.578821
4686000000,-57.744808,-21.842987
4689000000,-57.403309,-30.173023
4692000000,-57.797604,-39.278301
4695000000,-57.809662,-47.534504
4698000000,-58.081837,-55.892994
4701000000,-57.932869,-63.863956
4704000000,-57.907887,-71.539856
4707000000,-57.910496,-79.952774
4710000000,-57.842751,-87.410515
4713000000,-57.393921,-97.559555
4716000000,-57.240479,-106.11797
4719000000,-57.226021,-115.32477
4722000000,-57.252026,-124.59073
4725000000,-57.221455,-134.45799
4728000000,-57.266727,-144.06335
4731000000,-57.299667,-152.82077
4734000000,-57.740959,-160.91472
4737000000,-57.44157,-169.51405
4740000000,-57.446396,-175.1321
4743000000,-57.073902,176.53586
4746000000,-57.051411,165.02934
4749000000,-56.793396,155.80193
4752000000,-56.65947,148.13362
4755000000,-56.550152,136.47159
4758000000,-56.508869,125.99738
4761000000,-57.057541,115.39697
4764000000,-57.203911,107.97694
4767000000,-57.255966,99.224747
4770000000,-57.277336,90.634041
4773000000,-57.173729,81.466209
4776000000,-56.952583,74.86248
4779000000,-56.916637,64.839012
4782000000,-56.870396,56.650223
4785000000,-56.897823,47.375492
4788000000,-57.035709,36.265537
4791000000,-56.856514,26.503973
4794000000,-57.035233,17.349245
4797000000,-57.076431,8.6237659
4800000000,-57.007423,-0.34890744
4803000000,-57.498787,-9.3734102
4806000000,-57.532089,-17.383835
4809000000,-57.337681,-26.047338
4812000000,-57.38073,-32.698532
4815000000,-57.720169,-43.458855
4818000000,-57.422958,-49.860226
4821000000,-57.5756,-60.045784
4824000000,-57.465221,-66.788994
4827000000,-57.250961,-75.557686
4830000000,-57.557777,-83.230797
4833000000,-57.055298,-91.772278
4836000000,-56.730377,-101.60675
4839000000,-56.836102,-112.29482
4842000000,-57.073112,-122.19468
4845000000,-57.131958,-131.00072
4848000000,-57.373386,-138.89427
4851000000,-57.409363,-146.52644
4854000000,-57.23381,-154.15259
4857000000,-57.008141,-163.20473
4860000000,-56.772293,-172.24681
4863000000,-56.844055,177.53946
4866000000,-56.786091,168.77731
4869000000,-56.908726,157.47697
4872000000,-57.10714,147.65587
4875000000,-57.097229,138.75951
4878000000,-57.339069,130.86215
4881000000,-57.324272,122.65433
4884000000,-57.273048,114.01502
4887000000,-57.150406,105.84162
4890000000,-57.453987,96.05864
4893000000,-56.898544,88.223335
4896000000,-56.719654,76.155228
4899000000,-56.923004,68.368187
4902000000,-57.082817,59.373661
4905000000,-57.38974,50.732208
4908000000,-57.443687,40.124043
4911000000,-57.644466,32.197906
4914000000,-57.51059,25.197392
4917000000,-57.603565,16.678759
4920000000,-57.380684,7.7047977
4923000000,-57.274147,-2.5204499
4926000000,-57.355503,-8.8736439
4929000000,-57.577198,-19.80928
4932000000,-57.379391,-28.614151
4935000000,-57.778061,-38.155064
4938000000,-57.625961,-44.757679
4941000000,-57.623711,-55.410381
4944000000,-57.501381,-62.228577
4947000000,-57.504292,-68.91082
4950000000,-57.343609,-80.455666
4953000000,-57.304188,-90.014954
4956000000,-57.143188,-97.901245
4959000000,-57.106895,-108.05815
4962000000,-57.373055,-119.31073
4965000000,-57.448421,-127.42776
4968000000,-57.718872,-136.68735
4971000000,-57.974777,-142.2037
4974000000,-57.799931,-150.28108
4977000000,-57.614906,-160.28708
4980000000,-57.442204,-169.80893
4983000000,-57.604713,-178.25873
4986000000,-57.994686,172.34991
4989000000,-57.906204,163.84015
4992000000,-58.319561,157.97212
4995000000,-57.882202,149.77655
4998000000,-57.868855,141.17667
5001000000,-57.667236,130.1687
5004000000,-57.637215,122.27843
5007000000,-57.655617,114.64722
5010000000,-57.356091,104.74928
5013000000,-57.76252,95.511024
5016000000,-57.962597,88.168983
5019000000,-57.575565,79.04451
5022000000,-57.733189,72.543587
5025000000,-57.703358,64.398338
5028000000,-57.360107,52.246971
5031000000,-57.7108,45.7071
5034000000,-57.467056,35.328701
5037000000,-57.579788,25.881388
5040000000,-57.445793,18.224676
5043000000,-57.071663,9.8473358
5046000000,-57.413094,-0.58417815
5049000000,-57.788578,-8.1017237
5052000000,-57.231945,-16.148369
5055000000,-57.126125,-25.356041
5058000000,-57.026703,-36.625233
5061000000,-56.958179,-43.902996
5064000000,-56.981422,-53.783466
5067000000,-56.962807,-63.996105
5070000000,-57.048832,-73.865433
5073000000,-57.336662,-83.586479
5076000000,-57.206612,-91.790581
5079000000,-57.262459,-100.45234
5082000000,-57.495689,-108.10453
5085000000,-57.490925,-117.95634
5088000000,-57.179985,-125.62315
5091000000,-57.429367,-135.34889
5094000000,-57.2686,-143.11176
5097000000,-57.044155,-152.88213
5100000000,-57.058201,-163.97388
5103000000,-57.479301,-171.46439
5106000000,-57.566433,179.95811
5109000000,-58.017353,170.26506
5112000000,-57.609665,163.02243
5115000000,-57.631561,153.05792
5118000000,-57.562725,146.42905
5121000000,-57.463886,136.32326
5124000000,-57.669735,129.15202
5127000000,-57.573013,120.59779
5130000000,-57.265423,110.40766
5133000000,-57.530445,102.73837
5136000000,-57.546734,92.421364
5139000000,-57.230679,83.599136
5142000000,-57.379749,74.091171
5145000000,-57.662781,65.065956
5148000000,-57.312122,55.912704
5151000000,-57.273769,46.809025
5154000000,-57.545372,37.111675
5157000000,-57.589714,29.62608
5160000000,-57.796482,20.78549
5163000000,-57.557648,12.772803
5166000000,-57.370361,3.7733803
5169000000,-57.240322,-6.8920522
5172000000,-57.214405,-15.667938
5175000000,-57.223141,-26.663557
5178000000,-57.50032,-36.279415
5181000000,-57.787674,-48.152412
5184000000,-57.896786,-56.79705
5187000000,-58.047184,-62.605534
5190000000,-58.152954,-71.639107
5193000000,-58.734432,-78.327507
5196000000,-58.32423,-85.67173
5199000000,-58.109791,-93.974327
5202000000,-57.940418,-102.22288
5205000000,-57.643738,-112.97111
5208000000,-57.563606,-123.64969
5211000000,-57.919399,-131.8087
5214000000,-58.182682,-143.06952
5217000000,-58.383915,-150.18361
5220000000,-58.369633,-158.48106
5223000000,-58.772644,-167.99129
5226000000,-58.574364,-175.32635
5229000000,-58.938213,176.12102
5232000000,-58.926384,168.96616
5235000000,-58.394142,162.24457
5238000000,-58.253323,153.93959
5241000000,-58.161781,144.22113
5244000000,-58.142254,133.80687
5247000000,-58.072941,123.91998
5250000000,-58.161644,114.80148
5253000000,-58.200447,106.14481
5256000000,-58.43766,96.367935
5259000000,-58.568272,86.888206
5262000000,-58.917564,80.455215
5265000000,-58.737938,71.946724
5268000000,-58.967094,61.947521
5271000000,-58.855743,53.603115
5274000000,-58.669739,47.59911
5277000000,-58.543583,39.117069
5280000000,-58.639629,28.119541
5283000000,-58.515652,20.031364
5286000000,-58.148651,10.320082
5289000000,-58.507984,3.1258328
5292000000,-58.527191,-5.1765084
5295000000,-58.432903,-16.16485
5298000000,-58.823025,-24.722605
5301000000,-58.674576,-33.602917
5304000000,-58.678402,-42.209705
5307000000,-58.774754,-48.851585
5310000000,-58.869209,-56.067131
5313000000,-58.630913,-63.795212
5316000000,-58.596146,-73.183968
5319000000,-58.993778,-83.836815
5322000000,-58.464603,-92.129341
5325000000,-58.319126,-101.92563
5328000000,-58.710838,-110.98726
5331000000,-58.499962,-120.83559
5334000000,-59.113892,-130.12268
5337000000,-58.504444,-138.89622
5340000000,-58.806747,-147.23303
5343000000,-58.712685,-151.40311
5346000000,-59.083511,-161.68266
5349000000,-59.182373,-171.5448
5352000000,-58.611187,-178.23315
5355000000,-58.86747,173.11836
5358000000,-58.450901,162.76199
5361000000,-58.76482,152.49071
5364000000,-58.631287,143.82791
5367000000,-58.441967,134.8788
5370000000,-58.549969,121.47168
5373000000,-58.651711,114.98013
5376000000,-59.090382,104.30677
5379000000,-59.280422,96.151848
5382000000,-59.066704,86.448868
5385000000,-59.495365,81.819221
5388000000,-59.29063,77.321938
5391000000,-59.133778,67.590958
5394000000,-58.693756,57.787128
5397000000,-59.040852,48.980598
5400000000,-58.761719,37.055477
5403000000,-58.677505,31.98802
5406000000,-58.912075,19.424786
5409000000,-58.962456,12.957305
5412000000,-58.887383,3.2841873
5415000000,-58.623055,-5.1716847
5418000000,-59.245663,-18.72508
5421000000,-59.088615,-21.636353
5424000000,-59.429707,-31.939711
5427000000,-59.287354,-38.204025
5430000000,-59.142509,-47.260902
5433000000,-58.808281,-58.550869
5436000000,-58.664894,-67.374298
5439000000,-58.834175,-77.502213
5442000000,-59.187809,-85.273727
5445000000,-59.303986,-92.02034
5448000000,-59.034698,-98.081993
5451000000,-58.888741,-110.61249
5454000000,-58.985149,-121.44099
5457000000,-59.352554,-129.19977
5460000000,-59.421097,-138.01894
5463000000,-59.2104,-147.75117
5466000000,-59.233536,-154.957
5469000000,-59.351852,-162.44849
5472000000,-59.465061,-169.4052
5475000000,-59.188835,177.72363
5478000000,-59.156723,171.70494
5481000000,-58.63242,162.4454
5484000000,-59.045284,153.12547
5487000000,-59.17046,141.41838
5490000000,-59.344589,133.13782
5493000000,-59.082722,125.86461
5496000000,-59.514858,116.1348
5499000000,-59.383339,106.45538
5502000000,-59.805756,97.669304
5505000000,-59.880779,90.026093
5508000000,-59.728512,81.473526
5511000000,-60.200329,75.5774
5514000000,-59.541222,67.462547
5517000000,-59.507996,60.529533
5520000000,-59.508663,52.540359
5523000000,-59.499821,42.57383
5526000000,-59.34045,30.618216
5529000000,-59.517906,22.26256
5532000000,-59.294075,13.669991
5535000000,-59.036579,3.9229734
5538000000,-59.468983,-6.9057164
5541000000,-59.380909,-12.023573
5544000000,-59.472431,-20.270735
5547000000,-59.679195,-29.707809
5550000000,-59.8759,-37.088734
5553000000,-59.456223,-45.524448
5556000000,-59.663692,-56.296749
5559000000,-59.023251,-65.635048
5562000000,-59.457565,-74.714195
5565000000,-59.333145,-83.429024
5568000000,-59.479221,-96.253143
5571000000,-59.578056,-104.74768
5574000000,-60.109093,-113.34387
5577000000,-59.868378,-120.721
5580000000,-60.734409,-128.8689
5583000000,-60.374947,-136.34882
5586000000,-60.357853,-142.3998
5589000000,-60.17321,-154.79196
5592000000,-60.023479,-161.59906
5595000000,-59.476406,-167.825
5598000000,-59.394493,-176.22414
5601000000,-59.552006,172.93962
5604000000,-59.865902,163.43739
5607000000,-60.245605,152.42604
5610000000,-60.289494,144.67726
5613000000,-60.292614,136.84593
5616000000,-59.874081,124.37854
5619000000,-60.503166,118.99143
5622000000,-60.682579,109.1788
5625000000,-60.836445,102.36879
5628000000,-60.485329,96.877228
5631000000,-60.626301,86.274643
5634000000,-60.195957,75.923477
5637000000,-59.519764,69.360527
5640000000,-59.75824,58.422817
5643000000,-59.796669,49.621559
5646000000,-60.038055,40.441818
5649000000,-60.812637,31.947121
5652000000,-60.286201,21.716011
5655000000,-61.196365,14.757033
5658000000,-61.046234,9.5591526
5661000000,-61.217812,-1.4642273
5664000000,-61.053505,-8.317112
5667000000,-61.056133,-13.59593
5670000000,-60.468632,-23.518032
5673000000,-59.951046,-33.425812
5676000000,-60.136707,-45.359104
5679000000,-59.979763,-55.66563
5682000000,-59.707516,-60.84985
5685000000,-60.381447,-69.947525
5688000000,-60.348484,-78.888893
5691000000,-61.178154,-87.636215
5694000000,-61.03223,-94.738205
5697000000,-61.003941,-105.88058
5700000000,-60.711441,-114.34018
5703000000,-61.17168,-122.00555
5706000000,-60.775402,-129.23856
5709000000,-60.55835,-140.68025
5712000000,-60.681816,-145.51183
5715000000,-60.615311,-154.87877
5718000000,-60.683838,-166.80692
5721000000,-60.975323,-177.28877
5724000000,-60.744724,176.39177
5727000000,-60.731762,169.26219
5730000000,-60.881775,159.88319
5733000000,-61.581749,149.81149
5736000000,-60.818287,143.0047
5739000000,-60.830212,137.01672
5742000000,-60.574207,131.67506
5745000000,-60.655998,121.74729
5748000000,-60.624229,110.27403
5751000000,-60.183231,100.13095
5754000000,-60.49147,89.672623
5757000000,-60.145393,80.901894
5760000000,-60.726749,68.942291
5763000000,-60.393749,59.431343
5766000000,-60.266998,51.077591
5769000000,-60.304565,45.417168
5772000000,-61.069885,39.055473
5775000000,-60.927376,27.018608
5778000000,-60.519226,20.233389
5781000000,-60.244812,10.916849
5784000000,-60.330578,-2.6462457
5787000000,-61.072739,-8.9263449
5790000000,-60.884743,-21.931858
5793000000,-61.51672,-29.241615
5796000000,-61.300266,-35.7668
5799000000,-61.42561,-46.276176
5802000000,-61.157948,-53.866718
5805000000,-61.532417,-56.749538
5808000000,-60.75769,-68.635376
5811000000,-61.240494,-80.898071
5814000000,-61.633461,-86.589287
5817000000,-61.687885,-93.926315
5820000000,-61.937,-101.18081
5823000000,-61.913525,-107.15035
5826000000,-61.343861,-117.11767
5829000000,-61.774006,-125.93472
5832000000,-61.360046,-136.63902
5835000000,-61.117882,-148.72189
5838000000,-61.154018,-155.10092
5841000000,-61.939941,-165.69414
5844000000,-61.445332,-171.42239
5847000000,-61.836163,178.62022
5850000000,-61.666874,173.56775
5853000000,-61.420727,161.04712
5856000000,-61.625114,154.03831
5859000000,-61.722054,144.87611
5862000000,-61.964752,139.8727
5865000000,-61.28849,130.52063
5868000000,-61.932957,117.93289
5871000000,-61.124775,113.97403
5874000000,-61.935738,103.23267
5877000000,-60.958851,94.368515
5880000000,-61.369865,87.332161
5883000000,-62.210907,78.440781
5886000000,-61.744099,66.930496
5889000000,-61.677643,54.758858
5892000000,-61.711193,48.726044
5895000000,-61.908703,43.843773
5898000000,-62.39679,32.046165
5901000000,-61.984303,25.903648
5904000000,-62.137909,15.312183
5907000000,-61.025097,6.116478
5910000000,-62.021698,1.9855399
5913000000,-62.023685,-5.7020459
5916000000,-62.026478,-15.395376
5919000000,-62.577229,-27.724852
5922000000,-62.411926,-36.570877
5925000000,-61.525948,-40.397419
5928000000,-61.882576,-50.188114
5931000000,-62.242081,-58.580772
5934000000,-62.240959,-66.26696
5937000000,-61.219177,-77.24514
5940000000,-62.420845,-86.012581
5943000000,-62.403809,-93.735321
5946000000,-62.345825,-104.04834
5949000000,-62.295769,-111.25816
5952000000,-61.714592,-117.79017
5955000000,-62.371826,-124.60742
5958000000,-61.546928,-137.41443
5961000000,-61.852909,-146.81723
5964000000,-62.159924,-154.63667
5967000000,-62.291946,-163.32065
5970000000,-62.528019,-169.72456
5973000000,-62.334183,177.52669
5976000000,-62.617229,168.2798
5979000000,-62.229397,161.00031
5982000000,-62.150627,155.5396
5985000000,-62.043137,146.61998
5988000000,-62.367287,141.72787
5991000000,-61.80526,128.0425
5994000000,-62.083981,118.60693
5997000000,-62.516369,108.76399
6000000000,-61.825993,101.5379
END

