!CSV A.01.01
!Keysight Technologies,N5227B,US58420762,A.13.80.08
!Date: Tuesday, November 21, 2023 09:33:10
!Source: Standard

BEGIN CH1_DATA
Time(s),S21(DB),S21(DEG)
5e-009,-119.06425,50.699974
5.015e-009,-119.29164,70.270119
5.03e-009,-119.79199,89.277977
5.045e-009,-120.57545,107.12686
5.06e-009,-121.63749,122.91736
5.075e-009,-122.90556,135.22679
5.09e-009,-124.09149,142.29387
5.105e-009,-124.54502,144.07471
5.12e-009,-123.74317,145.36267
5.135e-009,-122.07426,151.66833
5.15e-009,-120.22624,163.63998
5.165e-009,-118.53793,179.60756
5.18e-009,-117.09859,-161.90579
5.195e-009,-115.90974,-141.82103
5.21e-009,-114.95193,-120.6835
5.225e-009,-114.20494,-98.815437
5.24e-009,-113.65343,-76.420395
5.255e-009,-113.2877,-53.621616
5.27e-009,-113.10432,-30.500954
5.285e-009,-113.10586,-7.1027794
5.3e-009,-113.30223,16.547514
5.315e-009,-113.71232,40.456608
5.33e-009,-114.36865,64.656624
5.345e-009,-115.32478,89.236488
5.36e-009,-116.67088,114.38239
5.375e-009,-118.57119,140.53934
5.39e-009,-121.35888,168.93912
5.405e-009,-125.80781,-155.59958
5.42e-009,-132.20807,-82.939835
5.435e-009,-127.30027,11.060852
5.45e-009,-121.66728,51.810951
5.465e-009,-118.07117,81.619873
5.48e-009,-115.52155,108.49115
5.495e-009,-113.59436,134.19919
5.51e-009,-112.08765,159.33778
5.525e-009,-110.89222,-175.84204
5.54e-009,-109.9436,-151.21275
5.555e-009,-109.20102,-126.70551
5.57e-009,-108.63844,-102.2809
5.585e-009,-108.23905,-77.91378
5.6e-009,-107.99304,-53.585548
5.615e-009,-107.89542,-29.28554
5.63e-009,-107.94614,-5.0040212
5.645e-009,-108.1493,19.264862
5.66e-009,-108.51427,43.52689
5.675e-009,-109.0567,67.789139
5.69e-009,-109.80138,92.057846
5.705e-009,-110.78622,116.34285
5.72e-009,-112.07224,140.66241
5.735e-009,-113.76161,165.04459
5.75e-009,-116.04536,-170.43564
5.765e-009,-119.34244,-145.57695
5.78e-009,-124.91419,-119.42738
5.795e-009,-143.41937,-61.126266
5.81e-009,-126.87806,99.276169
5.825e-009,-120.58606,126.12186
5.84e-009,-117.17384,151.03387
5.855e-009,-114.93871,175.48355
5.87e-009,-113.37819,-160.27515
5.885e-009,-112.27846,-136.16003
5.9e-009,-111.53322,-112.15108
5.915e-009,-111.08611,-88.248535
5.93e-009,-110.91038,-64.473236
5.945e-009,-110.99939,-40.861179
5.96e-009,-111.3652,-17.481939
5.975e-009,-112.04102,5.5442433
5.99e-009,-113.09064,27.989283
6.005e-009,-114.63055,49.376514
6.02e-009,-116.87792,68.534416
6.035e-009,-120.23568,81.829407
6.05e-009,-124.78333,74.845047
6.065e-009,-124.16147,38.161518
6.08e-009,-119.10931,33.978817
6.095e-009,-115.33839,48.115093
6.11e-009,-112.62828,67.654488
6.125e-009,-110.58944,89.320206
6.14e-009,-109.01057,112.03649
6.155e-009,-107.77477,135.36073
6.17e-009,-106.8125,159.08614
6.185e-009,-106.08154,-176.8933
6.2e-009,-105.55537,-152.63127
6.215e-009,-105.21863,-128.14784
6.23e-009,-105.06372,-103.44096
6.245e-009,-105.09005,-78.487236
6.26e-009,-105.303,-53.238892
6.275e-009,-105.71519,-27.611923
6.29e-009,-106.34679,-1.4690645
6.305e-009,-107.22852,25.421787
6.32e-009,-108.40246,53.469276
6.335e-009,-109.92046,83.436249
6.35e-009,-111.81623,116.81621
6.365e-009,-113.96164,156.45074
6.38e-009,-115.59383,-154.4319
6.395e-009,-115.33041,-100.58201
6.41e-009,-113.48608,-53.979553
6.425e-009,-111.44317,-16.231554
6.44e-009,-109.74905,16.223259
6.455e-009,-108.47598,45.834751
6.47e-009,-107.59917,73.874115
6.485e-009,-107.09502,101.02081
6.5e-009,-106.9633,127.68236
6.515e-009,-107.23586,154.16597
6.53e-009,-107.99393,-179.20328
6.545e-009,-109.4094,-151.88762
6.56e-009,-111.86573,-122.5128
6.575e-009,-116.35305,-85.311195
6.59e-009,-122.57633,2.3278575
6.605e-009,-115.02312,90.031601
6.62e-009,-109.17805,126.9046
6.635e-009,-105.3522,155.65675
6.65e-009,-102.54403,-177.95729
6.665e-009,-100.35911,-152.62325
6.68e-009,-98.611893,-127.89711
6.695e-009,-97.204247,-103.60316
6.71e-009,-96.081573,-79.677223
6.725e-009,-95.214813,-56.1185
6.74e-009,-94.592041,-32.977207
6.755e-009,-94.215675,-10.364779
6.77e-009,-94.101479,11.51522
6.785e-009,-94.279396,32.296219
6.8e-009,-94.791206,51.292133
6.815e-009,-95.669052,67.160202
6.83e-009,-96.820099,77.301537
6.845e-009,-97.609558,78.265762
6.86e-009,-96.637154,72.959564
6.875e-009,-93.854645,73.524628
6.89e-009,-90.656174,83.315056
6.905e-009,-87.700615,98.923203
6.92e-009,-85.081673,117.69008
6.935e-009,-82.75843,138.23244
6.95e-009,-80.676811,159.84042
6.965e-009,-78.792015,-177.87172
6.98e-009,-77.069809,-155.12721
6.995e-009,-75.484276,-132.06281
7.01e-009,-74.015648,-108.7663
7.025e-009,-72.648552,-85.296486
7.04e-009,-71.37088,-61.69397
7.055e-009,-70.17292,-37.98774
7.07e-009,-69.046745,-14.198901
7.085e-009,-67.985847,9.6567917
7.1e-009,-66.984756,33.567398
7.115e-009,-66.038887,57.523697
7.13e-009,-65.14431,81.518501
7.145e-009,-64.297661,105.54609
7.16e-009,-63.496014,129.60193
7.175e-009,-62.736824,153.68233
7.19e-009,-62.017853,177.78435
7.205e-009,-61.337128,-158.09448
7.22e-009,-60.692898,-133.95613
7.235e-009,-60.083599,-109.80225
7.25e-009,-59.507839,-85.634186
7.265e-009,-58.964355,-61.453056
7.28e-009,-58.45203,-37.259747
7.295e-009,-57.969837,-13.055024
7.31e-009,-57.516846,11.160542
7.325e-009,-57.092228,35.386463
7.34e-009,-56.695213,59.622402
7.355e-009,-56.325111,83.86808
7.37e-009,-55.981285,108.12335
7.385e-009,-55.663155,132.38809
7.4e-009,-55.37019,156.66231
7.415e-009,-55.10191,-179.05397
7.43e-009,-54.857864,-154.7606
7.445e-009,-54.637653,-130.45743
7.46e-009,-54.440899,-106.14419
7.475e-009,-54.267262,-81.820587
7.49e-009,-54.116421,-57.486267
7.505e-009,-53.988098,-33.1408
7.52e-009,-53.882023,-8.7836981
7.535e-009,-53.797947,15.585599
7.55e-009,-53.735649,39.967705
7.565e-009,-53.694923,64.363319
7.58e-009,-53.675575,88.773201
7.595e-009,-53.677422,113.19818
7.61e-009,-53.700291,137.63921
7.625e-009,-53.744026,162.09724
7.64e-009,-53.808475,-173.42656
7.655e-009,-53.893482,-148.93105
7.67e-009,-53.998898,-124.41493
7.685e-009,-54.12458,-99.876778
7.7e-009,-54.270374,-75.315117
7.715e-009,-54.436115,-50.72831
7.73e-009,-54.621628,-26.11463
7.745e-009,-54.826736,-1.4722058
7.76e-009,-55.051231,23.200928
7.775e-009,-55.29488,47.906887
7.79e-009,-55.557426,72.647873
7.805e-009,-55.83857,97.426239
7.82e-009,-56.137974,122.24439
7.835e-009,-56.45525,147.10484
7.85e-009,-56.789951,172.01018
7.865e-009,-57.141571,-163.03705
7.88e-009,-57.509514,-138.03423
7.895e-009,-57.893112,-112.97886
7.91e-009,-58.291603,-87.868614
7.925e-009,-58.704121,-62.701378
7.94e-009,-59.129704,-37.475357
7.955e-009,-59.567257,-12.189229
7.97e-009,-60.015594,13.157721
7.985e-009,-60.4734,38.565472
8e-009,-60.939266,64.033058
8.015e-009,-61.411682,89.558418
8.03e-009,-61.889061,115.13822
8.045e-009,-62.369785,140.7677
8.06e-009,-62.852207,166.44052
8.075e-009,-63.334717,-167.85124
8.09e-009,-63.815781,-142.11726
8.105e-009,-64.293991,-116.36871
8.12e-009,-64.76812,-90.618263
8.135e-009,-65.237175,-64.879791
8.15e-009,-65.700409,-39.168045
8.165e-009,-66.157394,-13.498273
8.18e-009,-66.607994,12.114198
8.195e-009,-67.052391,37.654472
8.21e-009,-67.491066,63.108429
8.225e-009,-67.924767,88.463242
8.24e-009,-68.354462,113.70757
8.255e-009,-68.781311,138.83189
8.27e-009,-69.206612,163.8286
8.285e-009,-69.631752,-171.30783
8.3e-009,-70.058189,-146.58098
8.315e-009,-70.487389,-121.99248
8.33e-009,-70.920822,-97.542091
8.345e-009,-71.359955,-73.227936
8.36e-009,-71.806244,-49.046642
8.375e-009,-72.261108,-24.993464
8.39e-009,-72.725998,-1.0625511
8.405e-009,-73.20237,22.752937
8.42e-009,-73.691704,46.460617
8.435e-009,-74.195572,70.068771
8.45e-009,-74.715622,93.586075
8.465e-009,-75.253632,117.02164
8.48e-009,-75.811554,140.38474
8.495e-009,-76.391502,163.68471
8.51e-009,-76.99588,-173.06909
8.525e-009,-77.627327,-149.86731
8.54e-009,-78.288864,-126.70074
8.555e-009,-78.983894,-103.56029
8.57e-009,-79.716347,-80.436874
8.585e-009,-80.490738,-57.321339
8.6e-009,-81.31237,-34.204319
8.615e-009,-82.187515,-11.075844
8.63e-009,-83.123703,12.075052
8.645e-009,-84.130135,35.261272
8.66e-009,-85.218323,58.498714
8.675e-009,-86.402962,81.80835
8.69e-009,-87.703362,105.21962
8.705e-009,-89.145775,128.77682
8.72e-009,-90.767326,152.55096
8.735e-009,-92.623184,176.66553
8.75e-009,-94.800514,-158.64398
8.765e-009,-97.448349,-132.86652
8.78e-009,-100.84768,-104.66888
8.795e-009,-105.55755,-69.411148
8.81e-009,-111.43675,-5.5700097
8.825e-009,-109.2504,81.33651
8.84e-009,-104.63472,125.57444
8.855e-009,-101.66033,156.07686
8.87e-009,-99.669022,-177.38086
8.885e-009,-98.267105,-152.45857
8.9e-009,-97.255402,-128.36974
8.915e-009,-96.523186,-104.78527
8.93e-009,-96.003349,-81.548485
8.945e-009,-95.652298,-58.580196
8.96e-009,-95.440102,-35.840363
8.975e-009,-95.34523,-13.311635
8.99e-009,-95.351448,9.0090628
9.005e-009,-95.445892,31.114477
9.02e-009,-95.617828,52.989723
9.035e-009,-95.857674,74.613197
9.05e-009,-96.15625,95.958153
9.065e-009,-96.504028,116.99355
9.08e-009,-96.890556,137.68599
9.095e-009,-97.303864,158.00314
9.11e-009,-97.729828,177.91783
9.125e-009,-98.151993,-162.58492
9.14e-009,-98.551712,-143.49933
9.155e-009,-98.909012,-124.78936
9.17e-009,-99.204315,-106.3822
9.185e-009,-99.420822,-88.166206
9.2e-009,-99.547287,-69.999237
9.215e-009,-99.579659,-51.725628
9.23e-009,-99.521538,-33.197235
9.245e-009,-99.382652,-14.292098
9.26e-009,-99.176575,5.071815
9.275e-009,-98.917969,24.938782
9.29e-009,-98.620712,45.317863
9.305e-009,-98.296654,66.193222
9.32e-009,-97.955139,87.532867
9.335e-009,-97.603233,109.29511
9.35e-009,-97.246033,131.43623
9.365e-009,-96.887085,153.91141
9.38e-009,-96.528954,176.67853
9.395e-009,-96.173317,-160.30177
9.41e-009,-95.821533,-137.06512
9.425e-009,-95.474663,-113.64294
9.44e-009,-95.13372,-90.063187
9.455e-009,-94.799629,-66.349953
9.47e-009,-94.473442,-42.524239
9.485e-009,-94.156219,-18.602924
9.5e-009,-93.849098,5.399137
9.515e-009,-93.553185,29.470297
9.53e-009,-93.269638,53.600906
9.545e-009,-92.999596,77.783829
9.56e-009,-92.744217,102.0132
9.575e-009,-92.504501,126.28493
9.59e-009,-92.28141,150.59627
9.605e-009,-92.075836,174.94539
9.62e-009,-91.888557,-160.66849
9.635e-009,-91.720192,-136.24594
9.65e-009,-91.571281,-111.78669
9.665e-009,-91.44223,-87.290283
9.68e-009,-91.333305,-62.756153
9.695e-009,-91.244629,-38.183502
9.71e-009,-91.176201,-13.571919
9.725e-009,-91.127899,11.079024
9.74e-009,-91.099457,35.769417
9.755e-009,-91.090469,60.498714
9.77e-009,-91.10038,85.265808
9.785e-009,-91.128578,110.0691
9.8e-009,-91.174263,134.90569
9.815e-009,-91.236565,159.77217
9.83e-009,-91.314507,-175.33646
9.845e-009,-91.407043,-150.42624
9.86e-009,-91.513039,-125.50473
9.875e-009,-91.631332,-100.58083
9.89e-009,-91.760757,-75.665161
9.905e-009,-91.900131,-50.769783
9.92e-009,-92.048294,-25.908398
9.935e-009,-92.204124,-1.0960627
9.95e-009,-92.366592,23.650791
9.965e-009,-92.534691,48.314754
9.98e-009,-92.707497,72.877411
9.995e-009,-92.884117,97.319908
1.001e-008,-93.063705,121.62344
1.0025e-008,-93.245392,145.76932
1.004e-008,-93.428238,169.73961
1.0055e-008,-93.611206,-166.48221
1.007e-008,-93.793137,-142.91106
1.0085e-008,-93.972641,-119.55921
1.01e-008,-94.148132,-96.436279
1.0115e-008,-94.317757,-73.548073
1.013e-008,-94.479546,-50.896156
1.0145e-008,-94.631371,-28.477367
1.016e-008,-94.771034,-6.283525
1.0175e-008,-94.896439,15.699201
1.019e-008,-95.005875,37.489544
1.0205e-008,-95.097931,59.110985
1.022e-008,-95.171898,80.590714
1.0235e-008,-95.22773,101.9588
1.025e-008,-95.266273,123.24566
1.0265e-008,-95.289055,144.4816
1.028e-008,-95.298401,165.69476
1.0295e-008,-95.297256,-173.09015
1.031e-008,-95.288918,-151.85226
1.0325e-008,-95.276947,-130.57588
1.034e-008,-95.265007,-109.24897
1.0355e-008,-95.256622,-87.864693
1.037e-008,-95.255142,-66.419518
1.0385e-008,-95.263519,-44.913643
1.04e-008,-95.284416,-23.349157
1.0415e-008,-95.320068,-1.7305237
1.043e-008,-95.372223,19.936897
1.0445e-008,-95.442291,41.646706
1.046e-008,-95.531212,63.39275
1.0475e-008,-95.639648,85.169342
1.049e-008,-95.767754,106.97103
1.0505e-008,-95.915482,128.79381
1.052e-008,-96.082413,150.63522
1.0535e-008,-96.267876,172.49434
1.055e-008,-96.471001,-165.62688
1.0565e-008,-96.69072,-143.72484
1.058e-008,-96.925781,-121.79279
1.0595e-008,-97.174934,-99.820953
1.061e-008,-97.436752,-77.796623
1.0625e-008,-97.709892,-55.703712
1.064e-008,-97.993065,-33.522861
1.0655e-008,-98.285027,-11.232352
1.067e-008,-98.584572,11.193488
1.0685e-008,-98.890625,33.781437
1.07e-008,-99.202057,56.560963
1.0715e-008,-99.517815,79.562294
1.073e-008,-99.836426,102.81625
1.0745e-008,-100.15624,126.35324
1.076e-008,-100.47507,150.20093
1.0775e-008,-100.78999,174.38461
1.079e-008,-101.09733,-161.07663
1.0805e-008,-101.39243,-136.17084
1.082e-008,-101.66991,-110.8967
1.0835e-008,-101.92371,-85.266052
1.085e-008,-102.14761,-59.305603
1.0865e-008,-102.33606,-33.058777
1.088e-008,-102.48451,-6.5851393
1.0895e-008,-102.59061,20.043125
1.091e-008,-102.65459,46.746483
1.0925e-008,-102.67954,73.443085
1.094e-008,-102.67119,100.05759
1.0955e-008,-102.63743,126.52316
1.097e-008,-102.58754,152.78773
1.0985e-008,-102.53135,178.81241
1.1e-008,-102.47868,-155.4294
1.1015e-008,-102.43875,-129.95343
1.103e-008,-102.41994,-104.76962
1.1045e-008,-102.42971,-79.883446
1.106e-008,-102.47448,-55.299618
1.1075e-008,-102.55995,-31.025517
1.109e-008,-102.69083,-7.0709157
1.1105e-008,-102.8712,16.546913
1.112e-008,-103.10445,39.802303
1.1135e-008,-103.39287,62.658443
1.115e-008,-103.73775,85.065575
1.1165e-008,-104.13861,106.95644
1.118e-008,-104.59233,128.24565
1.1195e-008,-105.09124,148.82654
1.121e-008,-105.62108,168.57608
1.1225e-008,-106.15771,-172.634
1.124e-008,-106.66393,-154.90573
1.1255e-008,-107.08883,-138.25848
1.127e-008,-107.3723,-122.5612
1.1285e-008,-107.46095,-107.48239
1.13e-008,-107.32713,-92.522995
1.1315e-008,-106.98238,-77.149101
1.133e-008,-106.4709,-60.95504
1.1345e-008,-105.85098,-43.735462
1.136e-008,-105.17685,-25.462553
1.1375e-008,-104.48991,-6.2180419
1.139e-008,-103.81766,13.872203
1.1405e-008,-103.17642,34.673027
1.142e-008,-102.57489,56.064487
1.1435e-008,-102.01674,77.945068
1.145e-008,-101.50221,100.23045
1.1465e-008,-101.02997,122.85275
1.148e-008,-100.59756,145.75758
1.1495e-008,-100.20195,168.90196
1.151e-008,-99.839943,-167.75052
1.1525e-008,-99.508125,-144.22868
1.154e-008,-99.203156,-120.55787
1.1555e-008,-98.921791,-96.75779
1.157e-008,-98.661018,-72.847168
1.1585e-008,-98.417877,-48.842159
1.16e-008,-98.189865,-24.756084
1.1615e-008,-97.974426,-0.6028347
1.163e-008,-97.769493,23.606604
1.1645e-008,-97.573219,47.8605
1.166e-008,-97.384109,72.149536
1.1675e-008,-97.200829,96.464104
1.169e-008,-97.022652,120.79624
1.1705e-008,-96.848846,145.13852
1.172e-008,-96.679207,169.48485
1.1735e-008,-96.513718,-166.17009
1.175e-008,-96.352737,-141.8308
1.1765e-008,-96.196739,-117.50046
1.178e-008,-96.046501,-93.18045
1.1795e-008,-95.902969,-68.872375
1.181e-008,-95.767288,-44.57613
1.1825e-008,-95.640678,-20.290976
1.184e-008,-95.524513,3.9850056
1.1855e-008,-95.420204,28.254105
1.187e-008,-95.329262,52.519268
1.1885e-008,-95.253242,76.784332
1.19e-008,-95.193718,101.0535
1.1915e-008,-95.152252,125.33179
1.193e-008,-95.130455,149.62389
1.1945e-008,-95.129936,173.93623
1.196e-008,-95.152328,-161.72513
1.1975e-008,-95.199203,-137.353
1.199e-008,-95.272186,-112.93969
1.2005e-008,-95.372894,-88.476662
1.202e-008,-95.50296,-63.954006
1.2035e-008,-95.664032,-39.360584
1.205e-008,-95.857719,-14.683797
1.2065e-008,-96.085648,10.091451
1.208e-008,-96.349449,34.982079
1.2095e-008,-96.650703,60.009102
1.211e-008,-96.990791,85.196739
1.2125e-008,-97.37101,110.57452
1.214e-008,-97.792267,136.17738
1.2155e-008,-98.25486,162.04832
1.217e-008,-98.758209,-171.76216
1.2185e-008,-99.300278,-145.19289
1.22e-008,-99.876839,-118.17348
1.2215e-008,-100.4804,-90.62336
1.223e-008,-101.09879,-62.458134
1.2245e-008,-101.71358,-33.598389
1.226e-008,-102.29922,-3.9895985
1.2275e-008,-102.82277,26.370756
1.229e-008,-103.24729,57.399326
1.2305e-008,-103.53876,88.904633
1.232e-008,-103.67545,120.59587
1.2335e-008,-103.65545,152.13927
1.235e-008,-103.49728,-176.76843
1.2365e-008,-103.23368,-146.34007
1.238e-008,-102.90199,-116.67735
1.2395e-008,-102.53642,-87.791397
1.241e-008,-102.16438,-59.633633
1.2425e-008,-101.80602,-32.126301
1.244e-008,-101.47486,-5.1825023
1.2455e-008,-101.17969,21.28145
1.247e-008,-100.92584,47.340969
1.2485e-008,-100.7162,73.062172
1.25e-008,-100.55243,98.501564
1.2515e-008,-100.43511,123.70847
1.253e-008,-100.36444,148.72498
1.2545e-008,-100.3404,173.58826
1.256e-008,-100.36292,-161.66826
1.2575e-008,-100.43208,-137.01382
1.259e-008,-100.54825,-112.41886
1.2605e-008,-100.71194,-87.854118
1.262e-008,-100.92413,-63.289196
1.2635e-008,-101.18629,-38.692162
1.265e-008,-101.5003,-14.026441
1.2665e-008,-101.86867,10.748685
1.268e-008,-102.29443,35.682884
1.2695e-008,-102.78132,60.837021
1.271e-008,-103.3334,86.287788
1.2725e-008,-103.95501,112.13565
1.274e-008,-104.64991,138.51166
1.2755e-008,-105.41952,165.59407
1.277e-008,-106.25973,-166.37828
1.2785e-008,-107.15413,-137.09268
1.28e-008,-108.06206,-106.16982
1.2815e-008,-108.90116,-73.242752
1.283e-008,-109.5352,-38.186802
1.2845e-008,-109.79906,-1.484992
1.286e-008,-109.58772,35.630512
1.2875e-008,-108.93863,71.712837
1.289e-008,-108.00039,105.88037
1.2905e-008,-106.93093,137.99249
1.292e-008,-105.83953,168.33144
1.2935e-008,-104.78524,-162.71677
1.295e-008,-103.79466,-134.80737
1.2965e-008,-102.87658,-107.67093
1.298e-008,-102.03137,-81.108795
1.2995e-008,-101.25547,-54.975498
1.301e-008,-100.54413,-29.165083
1.3025e-008,-99.892197,-3.6001685
1.304e-008,-99.294853,21.777321
1.3055e-008,-98.747528,47.010128
1.307e-008,-98.246315,72.130836
1.3085e-008,-97.787674,97.164497
1.31e-008,-97.368484,122.12952
1.3115e-008,-96.986023,147.04066
1.313e-008,-96.637863,171.90906
1.3145e-008,-96.321899,-163.25673
1.316e-008,-96.036156,-138.45085
1.3175e-008,-95.77903,-113.66791
1.319e-008,-95.548912,-88.904442
1.3205e-008,-95.344551,-64.15799
1.322e-008,-95.164635,-39.42688
1.3235e-008,-95.008057,-14.70982
1.325e-008,-94.873817,9.9940224
1.3265e-008,-94.760979,34.685005
1.328e-008,-94.668655,59.363155
1.3295e-008,-94.596069,84.0289
1.331e-008,-94.542442,108.682
1.3325e-008,-94.507072,133.32268
1.334e-008,-94.489265,157.95107
1.3355e-008,-94.488373,-177.43245
1.337e-008,-94.503746,-152.82719
1.3385e-008,-94.534767,-128.2323
1.34e-008,-94.580772,-103.64632
1.3415e-008,-94.641151,-79.068161
1.343e-008,-94.715256,-54.49498
1.3445e-008,-94.802467,-29.924978
1.346e-008,-94.902046,-5.3545847
1.3475e-008,-95.013306,19.219387
1.349e-008,-95.135582,43.801083
1.3505e-008,-95.268051,68.395035
1.352e-008,-95.40995,93.006294
1.3535e-008,-95.560455,117.64035
1.355e-008,-95.718697,142.30292
1.3565e-008,-95.883736,167.00034
1.358e-008,-96.054619,-168.26088
1.3595e-008,-96.23037,-143.47443
1.361e-008,-96.409927,-118.63368
1.3625e-008,-96.592148,-93.732651
1.364e-008,-96.775948,-68.765083
1.3655e-008,-96.960136,-43.726421
1.367e-008,-97.143509,-18.612087
1.3685e-008,-97.324799,6.5812073
1.37e-008,-97.502899,31.855148
1.3715e-008,-97.676582,57.210037
1.373e-008,-97.844833,82.644402
1.3745e-008,-98.006645,108.15507
1.376e-008,-98.161255,133.73746
1.3775e-008,-98.308029,159.384
1.379e-008,-98.446693,-174.91296
1.3805e-008,-98.577095,-149.16359
1.382e-008,-98.699585,-123.3784
1.3835e-008,-98.814735,-97.568817
1.385e-008,-98.92347,-71.746498
1.3865e-008,-99.027023,-45.922543
1.388e-008,-99.127022,-20.107635
1.3895e-008,-99.225182,5.6885419
1.391e-008,-99.323555,31.457676
1.3925e-008,-99.42437,57.193356
1.394e-008,-99.529816,82.89061
1.3955e-008,-99.642265,108.54605
1.397e-008,-99.764023,134.15854
1.3985e-008,-99.8974,159.72804
1.4e-008,-100.04459,-174.74298
1.4015e-008,-100.20772,-149.25058
1.403e-008,-100.38879,-123.78992
1.4045e-008,-100.58958,-98.353806
1.406e-008,-100.81191,-72.933502
1.4075e-008,-101.05711,-47.519112
1.409e-008,-101.32663,-22.098829
1.4105e-008,-101.62146,3.3409026
1.412e-008,-101.94246,28.815186
1.4135e-008,-102.2901,54.34243
1.415e-008,-102.66447,79.942581
1.4165e-008,-103.06519,105.63725
1.418e-008,-103.49129,131.45215
1.4195e-008,-103.94093,157.41451
1.421e-008,-104.41137,-176.44553
1.4225e-008,-104.89836,-150.09695
1.424e-008,-105.39641,-123.50916
1.4255e-008,-105.89813,-96.653023
1.427e-008,-106.39381,-69.508118
1.4285e-008,-106.87221,-42.063427
1.43e-008,-107.32007,-14.328115
1.4315e-008,-107.72316,13.667127
1.433e-008,-108.06812,41.861656
1.4345e-008,-108.34349,70.166367
1.436e-008,-108.54208,98.471893
1.4375e-008,-108.66223,126.65826
1.439e-008,-108.70756,154.60896
1.4405e-008,-108.68642,-177.77242
1.442e-008,-108.61073,-150.55655
1.4435e-008,-108.49352,-123.78237
1.445e-008,-108.34743,-97.463142
1.4465e-008,-108.18417,-71.590561
1.448e-008,-108.01357,-46.139412
1.4495e-008,-107.84354,-21.078466
1.451e-008,-107.68021,3.6316223
1.4525e-008,-107.5285,28.029303
1.454e-008,-107.39191,52.153591
1.4555e-008,-107.27338,76.041069
1.457e-008,-107.17484,99.727081
1.4585e-008,-107.09795,123.24243
1.46e-008,-107.04415,146.61696
1.4615e-008,-107.01439,169.87566
1.463e-008,-107.00974,-166.95602
1.4645e-008,-107.03094,-143.85553
1.466e-008,-107.07883,-120.80219
1.4675e-008,-107.15405,-97.776283
1.469e-008,-107.25729,-74.758896
1.4705e-008,-107.38898,-51.729176
1.472e-008,-107.54948,-28.668484
1.4735e-008,-107.73907,-5.5540967
1.475e-008,-107.95793,17.637537
1.4765e-008,-108.20568,40.932961
1.478e-008,-108.48177,64.363083
1.4795e-008,-108.78516,87.964096
1.481e-008,-109.1139,111.77795
1.4825e-008,-109.46534,135.85341
1.484e-008,-109.83501,160.24751
1.4855e-008,-110.21667,-174.97549
1.487e-008,-110.60125,-149.74765
1.4885e-008,-110.97623,-123.99979
1.49e-008,-111.32434,-97.671204
1.4915e-008,-111.62389,-70.72316
1.493e-008,-111.84903,-43.159729
1.4945e-008,-111.9724,-15.042899
1.496e-008,-111.9697,13.493171
1.4975e-008,-111.82544,42.247711
1.499e-008,-111.53689,70.992638
1.5005e-008,-111.11521,99.513687
1.502e-008,-110.58295,127.63949
1.5035e-008,-109.96739,155.2809
1.505e-008,-109.29596,-177.59468
1.5065e-008,-108.59298,-150.96719
1.508e-008,-107.87749,-124.78906
1.5095e-008,-107.16431,-98.997627
1.511e-008,-106.4637,-73.527687
1.5125e-008,-105.78351,-48.318047
1.514e-008,-105.12823,-23.31477
1.5155e-008,-104.50128,1.5304185
1.517e-008,-103.90456,26.256262
1.5185e-008,-103.33905,50.897343
1.52e-008,-102.80583,75.478394
1.5215e-008,-102.30422,100.02496
1.523e-008,-101.83458,124.55284
1.5245e-008,-101.39619,149.07797
1.526e-008,-100.98853,173.61089
1.5275e-008,-100.61076,-161.83841
1.529e-008,-100.26212,-137.26253
1.5305e-008,-99.941734,-112.65804
1.532e-008,-99.648727,-88.019867
1.5335e-008,-99.382072,-63.346657
1.535e-008,-99.14077,-38.638058
1.5365e-008,-98.923828,-13.893763
1.538e-008,-98.730263,10.883383
1.5395e-008,-98.558952,35.689728
1.541e-008,-98.409119,60.521862
1.5425e-008,-98.279663,85.373993
1.544e-008,-98.1698,110.23883
1.5455e-008,-98.078636,135.10823
1.547e-008,-98.0056,159.97296
1.5485e-008,-97.949951,-175.17757
1.55e-008,-97.911331,-150.35529
1.5515e-008,-97.889183,-125.57248
1.553e-008,-97.883446,-100.84435
1.5545e-008,-97.893852,-76.185158
1.556e-008,-97.920509,-51.611546
1.5575e-008,-97.963448,-27.141264
1.559e-008,-98.022881,-2.7928965
1.5605e-008,-98.098915,21.414738
1.562e-008,-98.191788,45.459595
1.5635e-008,-98.301437,69.31958
1.565e-008,-98.427864,92.970779
1.5665e-008,-98.570549,116.38801
1.568e-008,-98.728561,139.54402
1.5695e-008,-98.900345,162.41034
1.571e-008,-99.083549,-175.04182
1.5725e-008,-99.274712,-152.8418
1.574e-008,-99.468994,-131.01836
1.5755e-008,-99.660179,-109.59427
1.577e-008,-99.840164,-88.586853
1.5785e-008,-99.999329,-68.001671
1.58e-008,-100.12676,-47.826618
1.5815e-008,-100.211,-28.029413
1.583e-008,-100.24116,-8.552702
1.5845e-008,-100.20831,10.684702
1.586e-008,-100.10709,29.782177
1.5875e-008,-99.936554,48.848557
1.589e-008,-99.70031,67.989906
1.5905e-008,-99.406075,87.298637
1.592e-008,-99.06443,106.84539
1.5935e-008,-98.687187,126.67687
1.595e-008,-98.286186,146.81679
1.5965e-008,-97.87233,167.27061
1.598e-008,-97.455086,-171.97032
1.5995e-008,-97.042145,-150.92363
1.601e-008,-96.639641,-129.61133
1.6025e-008,-96.252274,-108.05737
1.604e-008,-95.883461,-86.28614
1.6055e-008,-95.535721,-64.32019
1.607e-008,-95.210701,-42.179993
1.6085e-008,-94.909538,-19.88419
1.61e-008,-94.632874,2.5514293
1.6115e-008,-94.380997,25.112976
1.613e-008,-94.15403,47.789192
1.6145e-008,-93.95182,70.570221
1.616e-008,-93.774139,93.448631
1.6175e-008,-93.620628,116.41817
1.619e-008,-93.490959,139.47437
1.6205e-008,-93.384613,162.61375
1.622e-008,-93.301201,-174.16568
1.6235e-008,-93.240189,-150.86499
1.625e-008,-93.201088,-127.48435
1.6265e-008,-93.183357,-104.02302
1.628e-008,-93.186493,-80.479294
1.6295e-008,-93.209892,-56.851048
1.631e-008,-93.252983,-33.135372
1.6325e-008,-93.315109,-9.3289165
1.634e-008,-93.395569,14.572207
1.6355e-008,-93.493637,38.572212
1.637e-008,-93.608421,62.67569
1.6385e-008,-93.738983,86.887283
1.64e-008,-93.884293,111.21161
1.6415e-008,-94.043121,135.65329
1.643e-008,-94.214111,160.21614
1.6445e-008,-94.395737,-175.09601
1.646e-008,-94.586296,-150.2809
1.6475e-008,-94.783966,-125.33744
1.649e-008,-94.986633,-100.26572
1.6505e-008,-95.192238,-75.068314
1.652e-008,-95.398415,-49.750267
1.6535e-008,-95.602921,-24.318989
1.655e-008,-95.803452,1.2147881
1.6565e-008,-95.997894,26.837481
1.658e-008,-96.184341,52.532032
1.6595e-008,-96.361176,78.27877
1.661e-008,-96.527298,104.0554
1.6625e-008,-96.682053,129.83813
1.664e-008,-96.82531,155.60161
1.6655e-008,-96.95755,-178.67935
1.667e-008,-97.079765,-153.02943
1.6685e-008,-97.193436,-127.47208
1.67e-008,-97.300377,-102.0286
1.6715e-008,-97.402672,-76.71833
1.673e-008,-97.502632,-51.557789
1.6745e-008,-97.602501,-26.561207
1.676e-008,-97.704575,-1.7402818
1.6775e-008,-97.81086,22.894979
1.679e-008,-97.923279,47.33672
1.6805e-008,-98.04332,71.578072
1.682e-008,-98.172226,95.613617
1.6835e-008,-98.310867,119.43868
1.685e-008,-98.459648,143.04878
1.6865e-008,-98.618584,166.44051
1.688e-008,-98.787292,-170.38905
1.6895e-008,-98.964836,-147.4425
1.691e-008,-99.149887,-124.72112
1.6925e-008,-99.340675,-102.2253
1.694e-008,-99.534958,-79.95343
1.6955e-008,-99.730103,-57.901421
1.697e-008,-99.923164,-36.062241
1.6985e-008,-100.11101,-14.425388
1.7e-008,-100.29037,7.0233254
1.7015e-008,-100.45813,28.303547
1.703e-008,-100.61135,49.437687
1.7045e-008,-100.74763,70.45372
1.706e-008,-100.86533,91.381645
1.7075e-008,-100.96324,112.25361
1.709e-008,-101.04143,133.10237
1.7105e-008,-101.10051,153.96022
1.712e-008,-101.14211,174.85651
1.7135e-008,-101.16828,-164.18279
1.715e-008,-101.18185,-143.13586
1.7165e-008,-101.18568,-121.98487
1.718e-008,-101.18296,-100.71801
1.7195e-008,-101.1767,-79.326202
1.721e-008,-101.16978,-57.805519
1.7225e-008,-101.16495,-36.154057
1.724e-008,-101.16455,-14.372791
1.7255e-008,-101.17065,7.5360355
1.727e-008,-101.18493,29.568544
1.7285e-008,-101.20895,51.720409
1.73e-008,-101.24368,73.98735
1.7315e-008,-101.29007,96.364944
1.733e-008,-101.34886,118.84968
1.7345e-008,-101.42043,141.43855
1.736e-008,-101.50517,164.12946
1.7375e-008,-101.60329,-173.07915
1.739e-008,-101.71491,-150.18666
1.7405e-008,-101.84008,-127.19276
1.742e-008,-101.9788,-104.09498
1.7435e-008,-102.13099,-80.889587
1.745e-008,-102.29669,-57.572033
1.7465e-008,-102.47575,-34.136395
1.748e-008,-102.66801,-10.575486
1.7495e-008,-102.87346,13.118884
1.751e-008,-103.09177,36.956829
1.7525e-008,-103.32263,60.949036
1.754e-008,-103.5658,85.107231
1.7555e-008,-103.82056,109.44509
1.757e-008,-104.08604,133.97618
1.7585e-008,-104.36124,158.71602
1.76e-008,-104.64459,-176.32047
1.7615e-008,-104.93397,-151.11833
1.763e-008,-105.22686,-125.6629
1.7645e-008,-105.5199,-99.941498
1.766e-008,-105.80911,-73.945168
1.7675e-008,-106.08965,-47.669487
1.769e-008,-106.35607,-21.116817
1.7705e-008,-106.60252,5.7022433
1.772e-008,-106.8229,32.764557
1.7735e-008,-107.01139,60.03838
1.775e-008,-107.16325,87.478035
1.7765e-008,-107.27509,115.02858
1.778e-008,-107.34512,142.62822
1.7795e-008,-107.37426,170.21239
1.781e-008,-107.36537,-162.28162
1.7825e-008,-107.32325,-134.90971
1.784e-008,-107.25407,-107.71845
1.7855e-008,-107.16506,-80.743179
1.787e-008,-107.06365,-54.009472
1.7885e-008,-106.95718,-27.530859
1.79e-008,-106.85231,-1.3137379
1.7915e-008,-106.75518,24.641909
1.793e-008,-106.67122,50.340408
1.7945e-008,-106.60487,75.787552
1.796e-008,-106.55993,100.99243
1.7975e-008,-106.53957,125.9619
1.799e-008,-106.54648,150.70393
1.8005e-008,-106.5825,175.22456
1.802e-008,-106.64954,-160.47223
1.8035e-008,-106.74883,-136.38336
1.805e-008,-106.88126,-112.50899
1.8065e-008,-107.04771,-88.849106
1.808e-008,-107.24852,-65.409218
1.8095e-008,-107.48402,-42.193874
1.811e-008,-107.75399,-19.211609
1.8125e-008,-108.05804,3.5281022
1.814e-008,-108.39542,26.011803
1.8155e-008,-108.76499,48.22551
1.817e-008,-109.16499,70.154083
1.8185e-008,-109.59325,91.78067
1.82e-008,-110.04669,113.08694
1.8215e-008,-110.52175,134.0576
1.823e-008,-111.01383,154.67792
1.8245e-008,-111.51792,174.93579
1.826e-008,-112.02794,-165.17406
1.8275e-008,-112.53735,-145.65138
1.829e-008,-113.0398,-126.48634
1.8305e-008,-113.52869,-107.66209
1.832e-008,-113.99856,-89.15033
1.8335e-008,-114.44474,-70.920845
1.835e-008,-114.86463,-52.937416
1.8365e-008,-115.25582,-35.168011
1.838e-008,-115.61845,-17.584133
1.8395e-008,-115.95216,-0.16834722
1.841e-008,-116.25674,17.088406
1.8425e-008,-116.53032,34.192616
1.844e-008,-116.76974,51.137009
1.8455e-008,-116.969,67.930786
1.847e-008,-117.12054,84.590721
1.8485e-008,-117.21539,101.15577
1.85e-008,-117.24511,117.6929
1.8515e-008,-117.20386,134.2942
1.853e-008,-117.08977,151.0731
1.8545e-008,-116.90704,168.13953
1.856e-008,-116.66402,-174.39326
1.8575e-008,-116.37373,-156.44957
1.859e-008,-116.05136,-137.97289
1.8605e-008,-115.71183,-118.94004
1.862e-008,-115.36945,-99.351395
1.8635e-008,-115.03668,-79.22467
1.865e-008,-114.7231,-58.588535
1.8665e-008,-114.43638,-37.477726
1.868e-008,-114.18278,-15.929738
1.8695e-008,-113.96655,6.0228457
1.871e-008,-113.79039,28.345102
1.8725e-008,-113.65657,51.009247
1.874e-008,-113.56612,73.98838
1.8755e-008,-113.51971,97.259407
1.877e-008,-113.51742,120.80289
1.8785e-008,-113.5592,144.60333
1.88e-008,-113.64443,168.64272
1.8815e-008,-113.7724,-167.09369
1.883e-008,-113.94225,-142.6147
1.8845e-008,-114.1532,-117.93972
1.886e-008,-114.40379,-93.077682
1.8875e-008,-114.69326,-68.044678
1.889e-008,-115.02066,-42.861546
1.8905e-008,-115.38445,-17.547571
1.892e-008,-115.78435,7.8707867
1.8935e-008,-116.22006,33.36298
1.895e-008,-116.69206,58.886196
1.8965e-008,-117.20113,84.397705
1.898e-008,-117.74976,109.83852
1.8995e-008,-118.34128,135.14088
1.901e-008,-118.97945,160.21732
1.9025e-008,-119.67065,-175.03868
1.904e-008,-120.42194,-150.75261
1.9055e-008,-121.2382,-127.10863
1.907e-008,-122.12559,-104.3275
1.9085e-008,-123.08006,-82.708984
1.91e-008,-124.08056,-62.648239
1.9115e-008,-125.07523,-44.621399
1.913e-008,-125.95321,-29.018684
1.9145e-008,-126.53899,-15.796989
1.916e-008,-126.65133,-4.0294342
1.9175e-008,-126.24007,7.957665
1.919e-008,-125.42671,21.639235
1.9205e-008,-124.41135,37.557396
1.922e-008,-123.35044,55.507576
1.9235e-008,-122.33508,75.065651
1.925e-008,-121.4069,95.795494
1.9265e-008,-120.58279,117.35623
1.928e-008,-119.86784,139.50322
1.9295e-008,-119.25818,162.05179
1.931e-008,-118.75227,-175.1353
1.9325e-008,-118.34581,-152.15199
1.934e-008,-118.03714,-129.08804
1.9355e-008,-117.82371,-106.00938
1.937e-008,-117.70412,-82.979477
1.9385e-008,-117.67932,-60.062122
1.94e-008,-117.74902,-37.324543
1.9415e-008,-117.91488,-14.85135
1.943e-008,-118.17778,7.262116
1.9445e-008,-118.53917,28.894316
1.946e-008,-118.99589,49.868549
1.9475e-008,-119.54151,69.976311
1.949e-008,-120.15566,88.945534
1.9505e-008,-120.79666,106.45572
1.952e-008,-121.38864,122.22829
1.9535e-008,-121.81129,136.20477
1.955e-008,-121.92972,148.82143
1.9565e-008,-121.65398,161.10353
1.958e-008,-121.00682,174.26064
1.9595e-008,-120.10308,-170.88681
1.961e-008,-119.07639,-154.12758
1.9625e-008,-118.02776,-135.62927
1.964e-008,-117.01555,-115.7011
1.9655e-008,-116.06985,-94.641647
1.967e-008,-115.20171,-72.693703
1.9685e-008,-114.41354,-50.04504
1.97e-008,-113.70255,-26.835423
1.9715e-008,-113.06493,-3.1644816
1.973e-008,-112.49522,20.892824
1.9745e-008,-111.9882,45.279034
1.976e-008,-111.53883,69.956627
1.9775e-008,-111.14223,94.891754
1.979e-008,-110.79404,120.06314
1.9805e-008,-110.48959,145.45146
1.982e-008,-110.22517,171.04564
1.9835e-008,-109.9966,-163.16699
1.985e-008,-109.80029,-137.19487
1.9865e-008,-109.63239,-111.04555
1.988e-008,-109.48943,-84.726944
1.9895e-008,-109.36796,-58.246624
1.991e-008,-109.26472,-31.613535
1.9925e-008,-109.17639,-4.8350224
1.994e-008,-109.10006,22.077108
1.9955e-008,-109.03278,49.113235
1.997e-008,-108.97207,76.258789
1.9985e-008,-108.91552,103.50223
2e-008,-108.8613,130.82686
END

