!CSV A.01.01
!Keysight Technologies,N5227B,US58420762,A.13.80.08
!Date: Tuesday, November 21, 2023 09:42:17
!Source: Standard

BEGIN CH1_DATA
Time(s),S21(DB),S21(DEG)
5e-009,-114.94223,138.69307
5.015e-009,-115.27212,161.03922
5.03e-009,-115.715,-176.66382
5.045e-009,-116.27679,-154.4425
5.06e-009,-116.9659,-132.33141
5.075e-009,-117.7935,-110.3684
5.09e-009,-118.77525,-88.603363
5.105e-009,-119.93156,-67.10054
5.12e-009,-121.2923,-45.950165
5.135e-009,-122.8992,-25.28454
5.15e-009,-124.81583,-5.318532
5.165e-009,-127.14436,13.570036
5.18e-009,-130.06264,30.58762
5.195e-009,-133.91508,43.622772
5.21e-009,-139.30923,44.792713
5.225e-009,-143.71667,6.15308
5.24e-009,-139.53204,-24.283083
5.255e-009,-135.68655,-22.495302
5.27e-009,-133.11865,-13.157526
5.285e-009,-131.18419,-1.9291062
5.3e-009,-129.52271,9.9817352
5.315e-009,-127.95028,22.546309
5.33e-009,-126.39669,36.064384
5.345e-009,-124.8615,50.798294
5.36e-009,-123.3736,66.841492
5.375e-009,-121.9651,84.12674
5.39e-009,-120.66006,102.50613
5.405e-009,-119.4727,121.80724
5.42e-009,-118.40955,141.87325
5.435e-009,-117.47255,162.56845
5.45e-009,-116.6609,-176.21977
5.465e-009,-115.97314,-154.57794
5.48e-009,-115.40801,-132.57208
5.495e-009,-114.96465,-110.25257
5.51e-009,-114.644,-87.655731
5.525e-009,-114.4483,-64.806419
5.54e-009,-114.38203,-41.714943
5.555e-009,-114.45261,-18.38139
5.57e-009,-114.67111,5.2107596
5.585e-009,-115.05347,29.099253
5.6e-009,-115.62336,53.355549
5.615e-009,-116.41502,78.105957
5.63e-009,-117.47987,103.58614
5.645e-009,-118.89576,130.25043
5.66e-009,-120.78239,159.08527
5.675e-009,-123.29328,-167.50807
5.69e-009,-126.33338,-123.25311
5.705e-009,-127.79967,-60.443317
5.72e-009,-125.25011,-1.2187421
5.735e-009,-121.8731,39.894119
5.75e-009,-119.11613,72.046112
5.765e-009,-116.9489,100.38455
5.78e-009,-115.21891,126.8706
5.795e-009,-113.81579,152.33301
5.81e-009,-112.66729,177.16708
5.825e-009,-111.72517,-158.41875
5.84e-009,-110.95648,-134.30698
5.855e-009,-110.33834,-110.4277
5.87e-009,-109.85432,-86.74147
5.885e-009,-109.49252,-63.224339
5.9e-009,-109.24421,-39.865528
5.915e-009,-109.10352,-16.661993
5.93e-009,-109.06615,6.3806634
5.945e-009,-109.12918,29.252184
5.96e-009,-109.29115,51.934387
5.975e-009,-109.5514,74.403374
5.99e-009,-109.90993,96.625343
6.005e-009,-110.36705,118.56104
6.02e-009,-110.92333,140.15668
6.035e-009,-111.5785,161.34866
6.05e-009,-112.33121,-177.94017
6.065e-009,-113.17772,-157.80132
6.08e-009,-114.10981,-138.33289
6.095e-009,-115.11366,-119.63131
6.11e-009,-116.1682,-101.7657
6.125e-009,-117.24545,-84.737961
6.14e-009,-118.31542,-68.433449
6.155e-009,-119.35812,-52.584854
6.17e-009,-120.38036,-36.775124
6.185e-009,-121.43116,-20.509964
6.2e-009,-122.61426,-3.2832909
6.215e-009,-124.10098,15.430579
6.23e-009,-126.17913,36.460716
6.245e-009,-129.41731,62.193745
6.26e-009,-135.02831,105.23899
6.275e-009,-135.99957,-152.9572
6.29e-009,-128.68073,-99.390564
6.305e-009,-123.92495,-69.521576
6.32e-009,-120.5885,-44.208065
6.335e-009,-118.03874,-20.264914
6.35e-009,-115.99719,3.1782427
6.365e-009,-114.3205,26.438793
6.38e-009,-112.92641,49.646183
6.395e-009,-111.76402,72.859558
6.41e-009,-110.80006,96.105659
6.425e-009,-110.01246,119.39587
6.44e-009,-109.38656,142.73428
6.455e-009,-108.91314,166.12093
6.47e-009,-108.58731,-170.44577
6.485e-009,-108.4081,-146.968
6.5e-009,-108.37807,-123.44817
6.515e-009,-108.50402,-99.888123
6.53e-009,-108.79752,-76.28891
6.545e-009,-109.27661,-52.650002
6.56e-009,-109.96866,-28.968346
6.575e-009,-110.91515,-5.2368698
6.59e-009,-112.18192,18.56147
6.605e-009,-113.88018,42.464283
6.62e-009,-116.21828,66.564453
6.635e-009,-119.6637,91.150948
6.65e-009,-125.69394,117.69497
6.665e-009,-145.52354,-128.83199
6.68e-009,-125.79193,-26.836046
6.695e-009,-120.14266,-0.47859845
6.71e-009,-117.05702,23.914295
6.725e-009,-115.12193,47.73
6.74e-009,-113.90823,71.208382
6.755e-009,-113.24886,94.370041
6.77e-009,-113.0904,117.12527
6.785e-009,-113.45622,139.2404
6.8e-009,-114.45672,160.17725
6.815e-009,-116.35026,178.49277
6.83e-009,-119.67188,-170.89404
6.845e-009,-123.92272,169.54591
6.86e-009,-120.06601,132.67262
6.875e-009,-114.4306,136.45313
6.89e-009,-110.42007,152.93456
6.905e-009,-107.41471,173.19658
6.92e-009,-105.04384,-164.98351
6.935e-009,-103.11824,-142.37111
6.95e-009,-101.53385,-119.29416
6.965e-009,-100.23055,-95.912323
6.98e-009,-99.173538,-72.308937
6.995e-009,-98.345108,-48.526512
7.01e-009,-97.740791,-24.581942
7.025e-009,-97.369003,-0.47014844
7.04e-009,-97.253395,23.839048
7.055e-009,-97.439278,48.414555
7.07e-009,-98.008469,73.402748
7.085e-009,-99.113678,99.136787
7.1e-009,-101.07103,126.52183
7.115e-009,-104.66217,159.01782
7.13e-009,-111.53511,-137.72183
7.145e-009,-106.64379,-26.959625
7.16e-009,-99.434929,14.843718
7.175e-009,-94.781265,44.283134
7.19e-009,-91.297478,70.836929
7.205e-009,-88.468155,96.301422
7.22e-009,-86.060623,121.24321
7.235e-009,-83.951035,145.89577
7.25e-009,-82.065674,170.37248
7.265e-009,-80.357018,-165.2652
7.28e-009,-78.79258,-140.98111
7.295e-009,-77.349098,-116.75267
7.31e-009,-76.009308,-92.565071
7.325e-009,-74.760017,-68.408249
7.34e-009,-73.590897,-44.27512
7.355e-009,-72.493683,-20.160583
7.37e-009,-71.461647,3.9391294
7.385e-009,-70.48925,28.026833
7.4e-009,-69.571854,52.104706
7.415e-009,-68.705536,76.174408
7.43e-009,-67.886955,100.23726
7.445e-009,-67.113228,124.29431
7.46e-009,-66.381851,148.34637
7.475e-009,-65.690651,172.39417
7.49e-009,-65.03772,-163.56178
7.505e-009,-64.421364,-139.52097
7.52e-009,-63.840096,-115.48305
7.535e-009,-63.292587,-91.447678
7.55e-009,-62.777657,-67.414558
7.565e-009,-62.294243,-43.383453
7.58e-009,-61.841415,-19.354137
7.595e-009,-61.418316,4.6735759
7.61e-009,-61.024197,28.699884
7.625e-009,-60.658379,52.724949
7.64e-009,-60.320255,76.748947
7.655e-009,-60.009281,100.77204
7.67e-009,-59.724991,124.79439
7.685e-009,-59.466946,148.81618
7.7e-009,-59.234776,172.83759
7.715e-009,-59.02816,-163.14122
7.73e-009,-58.846817,-139.11998
7.745e-009,-58.69051,-115.09853
7.76e-009,-58.559036,-91.076584
7.775e-009,-58.452248,-67.053871
7.79e-009,-58.370026,-43.030094
7.805e-009,-58.312283,-19.0049
7.82e-009,-58.27898,5.0220981
7.835e-009,-58.270115,29.051325
7.85e-009,-58.285709,53.08329
7.865e-009,-58.325836,77.11853
7.88e-009,-58.390598,101.15769
7.895e-009,-58.480145,125.20149
7.91e-009,-58.594654,149.25075
7.925e-009,-58.734356,173.30641
7.94e-009,-58.899521,-162.63046
7.955e-009,-59.090462,-138.55862
7.97e-009,-59.307552,-114.47668
7.985e-009,-59.551208,-90.382988
8e-009,-59.821899,-66.275658
8.015e-009,-60.120171,-42.152512
8.03e-009,-60.446617,-18.011019
8.045e-009,-60.801922,6.1517839
8.06e-009,-61.186825,30.339367
8.075e-009,-61.602177,54.55579
8.09e-009,-62.048901,78.80584
8.105e-009,-62.528038,103.09519
8.12e-009,-63.040733,127.43061
8.135e-009,-63.588257,151.82014
8.15e-009,-64.172005,176.27354
8.165e-009,-64.793518,-159.19751
8.18e-009,-65.454468,-134.57872
8.195e-009,-66.156677,-109.85265
8.21e-009,-66.902084,-84.99781
8.225e-009,-67.692703,-59.987606
8.24e-009,-68.530571,-34.788895
8.255e-009,-69.417557,-9.3601522
8.27e-009,-70.355186,16.350773
8.285e-009,-71.344131,42.409508
8.3e-009,-72.38356,68.898247
8.315e-009,-73.46994,95.918686
8.33e-009,-74.595192,123.59316
8.345e-009,-75.744003,152.06091
8.36e-009,-76.890305,-178.53716
8.375e-009,-77.993874,-148.0938
8.39e-009,-78.999817,-116.59819
8.405e-009,-79.845596,-84.213867
8.42e-009,-80.478531,-51.322922
8.435e-009,-80.877731,-18.468847
8.45e-009,-81.064507,13.803919
8.465e-009,-81.09211,45.111454
8.48e-009,-81.023842,75.288239
8.495e-009,-80.915497,104.34367
8.51e-009,-80.808243,132.38408
8.525e-009,-80.729118,159.54996
8.54e-009,-80.69442,-174.01979
8.555e-009,-80.713219,-148.20297
8.57e-009,-80.790146,-122.89807
8.585e-009,-80.927185,-98.022934
8.6e-009,-81.124916,-73.511848
8.615e-009,-81.383278,-49.312397
8.63e-009,-81.701996,-25.382521
8.645e-009,-82.080925,-1.6880751
8.66e-009,-82.520233,21.798998
8.675e-009,-83.020592,45.102352
8.69e-009,-83.583305,68.242424
8.705e-009,-84.210541,91.237633
8.72e-009,-84.905472,114.10526
8.735e-009,-85.672646,136.86258
8.75e-009,-86.518349,159.52769
8.765e-009,-87.451225,-177.87897
8.78e-009,-88.483208,-155.3329
8.795e-009,-89.630829,-132.80238
8.81e-009,-90.917603,-110.24389
8.825e-009,-92.377792,-87.591873
8.84e-009,-94.063484,-64.739464
8.855e-009,-96.058426,-41.491219
8.87e-009,-98.508171,-17.437822
8.885e-009,-101.69507,8.4679956
8.9e-009,-106.24333,39.880985
8.915e-009,-112.96525,97.308563
8.93e-009,-111.20438,-164.69124
8.945e-009,-105.60907,-120.20197
8.96e-009,-102.13731,-91.309738
8.975e-009,-99.78376,-66.28418
8.99e-009,-98.062431,-42.722095
9.005e-009,-96.745399,-19.856966
9.02e-009,-95.711014,2.6289711
9.035e-009,-94.887489,24.891298
9.05e-009,-94.229446,47.015732
9.065e-009,-93.706703,69.052979
9.08e-009,-93.298386,91.035095
9.095e-009,-92.989738,112.98335
9.11e-009,-92.770233,134.91196
9.125e-009,-92.632248,156.83098
9.14e-009,-92.570496,178.74724
9.155e-009,-92.581352,-159.33421
9.17e-009,-92.662704,-137.40997
9.185e-009,-92.813698,-115.47738
9.2e-009,-93.034668,-93.534615
9.215e-009,-93.327194,-71.579918
9.23e-009,-93.694145,-49.611866
9.245e-009,-94.139954,-27.628805
9.26e-009,-94.670952,-5.6287508
9.275e-009,-95.295883,16.391081
9.29e-009,-96.026894,38.434494
9.305e-009,-96.880783,60.507179
9.32e-009,-97.881462,82.617722
9.335e-009,-99.063843,104.78033
9.35e-009,-100.48141,127.01875
9.365e-009,-102.22134,149.37825
9.38e-009,-104.43945,171.95523
9.395e-009,-107.45702,-164.99463
9.41e-009,-112.1259,-140.49913
9.425e-009,-122.55483,-104.5257
9.44e-009,-119.38515,64.335083
9.455e-009,-111.13861,94.814598
9.47e-009,-107.0274,118.94213
9.485e-009,-104.30775,142.00684
9.5e-009,-102.29788,164.7234
9.515e-009,-100.72297,-172.70189
9.53e-009,-99.44471,-150.1852
9.545e-009,-98.383652,-127.68629
9.56e-009,-97.489998,-105.18205
9.575e-009,-96.730553,-82.658157
9.59e-009,-96.082062,-60.1054
9.605e-009,-95.527725,-37.51683
9.62e-009,-95.054993,-14.887803
9.635e-009,-94.654266,7.7854099
9.65e-009,-94.318138,30.505161
9.665e-009,-94.040718,53.273136
9.68e-009,-93.817329,76.090355
9.695e-009,-93.64415,98.95713
9.71e-009,-93.518059,121.87277
9.725e-009,-93.436455,144.83623
9.74e-009,-93.397202,167.84564
9.755e-009,-93.398415,-169.10175
9.77e-009,-93.438515,-146.00961
9.785e-009,-93.516106,-122.88242
9.8e-009,-93.629929,-99.725937
9.815e-009,-93.778801,-76.547279
9.83e-009,-93.961571,-53.354683
9.845e-009,-94.177177,-30.158234
9.86e-009,-94.424431,-6.9699521
9.875e-009,-94.702133,16.196259
9.89e-009,-95.008873,39.32391
9.905e-009,-95.343056,62.393944
9.92e-009,-95.702805,85.384605
9.935e-009,-96.085815,108.27108
9.95e-009,-96.489197,131.0255
9.965e-009,-96.909401,153.61754
9.98e-009,-97.341934,176.0146
9.995e-009,-97.781189,-161.81638
1.001e-008,-98.220177,-139.90735
1.0025e-008,-98.650421,-118.2857
1.004e-008,-99.06192,-96.970383
1.0055e-008,-99.443321,-75.966469
1.007e-008,-99.782555,-55.25975
1.0085e-008,-100.0678,-34.812996
1.01e-008,-100.28884,-14.563902
1.0115e-008,-100.43866,5.5718637
1.013e-008,-100.51461,25.692951
1.0145e-008,-100.51908,45.900524
1.016e-008,-100.45911,66.287056
1.0175e-008,-100.34546,86.926056
1.019e-008,-100.19101,107.86829
1.0205e-008,-100.00933,129.14027
1.022e-008,-99.81353,150.74864
1.0235e-008,-99.615494,172.68481
1.025e-008,-99.425568,-165.06975
1.0265e-008,-99.252563,-142.5394
1.028e-008,-99.103836,-119.75043
1.0295e-008,-98.985603,-96.728867
1.031e-008,-98.903145,-73.499062
1.0325e-008,-98.861069,-50.082829
1.034e-008,-98.863594,-26.498478
1.0355e-008,-98.914719,-2.7613811
1.037e-008,-99.018463,21.117041
1.0385e-008,-99.179024,45.128513
1.04e-008,-99.401031,69.269096
1.0415e-008,-99.689789,93.538689
1.043e-008,-100.05154,117.94228
1.0445e-008,-100.49385,142.49075
1.046e-008,-101.02605,167.20316
1.0475e-008,-101.66014,-167.89037
1.049e-008,-102.41154,-142.7428
1.0505e-008,-103.30087,-117.28028
1.052e-008,-104.35624,-91.38459
1.0535e-008,-105.61687,-64.85601
1.055e-008,-107.13879,-37.33556
1.0565e-008,-109.00086,-8.1272392
1.058e-008,-111.3003,24.258965
1.0595e-008,-114.04642,63.232887
1.061e-008,-116.49804,114.95636
1.0625e-008,-116.33169,175.79907
1.064e-008,-113.81905,-134.21339
1.0655e-008,-111.1916,-96.160233
1.067e-008,-109.02514,-64.033798
1.0685e-008,-107.28296,-34.745369
1.07e-008,-105.86781,-6.9395957
1.0715e-008,-104.70307,20.028116
1.073e-008,-103.73447,46.495468
1.0745e-008,-102.92362,72.65699
1.076e-008,-102.24259,98.632553
1.0775e-008,-101.67044,124.50122
1.079e-008,-101.19096,150.31787
1.0805e-008,-100.79126,176.12289
1.082e-008,-100.46056,-158.05287
1.0835e-008,-100.18971,-132.18581
1.085e-008,-99.970558,-106.25684
1.0865e-008,-99.79567,-80.25148
1.088e-008,-99.658035,-54.158905
1.0895e-008,-99.550934,-27.972603
1.091e-008,-99.467781,-1.6900856
1.0925e-008,-99.402206,24.685892
1.094e-008,-99.347961,51.147816
1.0955e-008,-99.29908,77.681679
1.097e-008,-99.250031,104.26856
1.0985e-008,-99.195839,130.88329
1.1e-008,-99.132324,157.49602
1.1015e-008,-99.056221,-175.92683
1.103e-008,-98.965279,-149.42084
1.1045e-008,-98.858353,-123.02212
1.106e-008,-98.735268,-96.76474
1.1075e-008,-98.59668,-70.680069
1.109e-008,-98.44397,-44.79454
1.1105e-008,-98.278893,-19.129469
1.112e-008,-98.103432,6.2996035
1.1135e-008,-97.91954,31.4825
1.115e-008,-97.729019,56.414639
1.1165e-008,-97.533363,81.095512
1.118e-008,-97.33371,105.52937
1.1195e-008,-97.130814,129.72333
1.121e-008,-96.925034,153.68793
1.1225e-008,-96.716415,177.43596
1.124e-008,-96.504715,-159.01759
1.1255e-008,-96.289452,-135.65607
1.127e-008,-96.070068,-112.46115
1.1285e-008,-95.845901,-89.413582
1.13e-008,-95.616364,-66.493057
1.1315e-008,-95.380867,-43.678993
1.133e-008,-95.139084,-20.95051
1.1345e-008,-94.890816,1.7130677
1.136e-008,-94.636063,24.331606
1.1375e-008,-94.375046,46.923988
1.139e-008,-94.108238,69.507889
1.1405e-008,-93.83625,92.099472
1.142e-008,-93.559883,114.7128
1.1435e-008,-93.280029,137.36024
1.145e-008,-92.997726,160.05228
1.1465e-008,-92.714005,-177.20267
1.148e-008,-92.429916,-154.3979
1.1495e-008,-92.146538,-131.52859
1.151e-008,-91.864876,-108.59134
1.1525e-008,-91.585899,-85.584023
1.154e-008,-91.310486,-62.505875
1.1555e-008,-91.039482,-39.357105
1.157e-008,-90.773666,-16.13879
1.1585e-008,-90.51371,7.1474762
1.16e-008,-90.260239,30.499189
1.1615e-008,-90.013832,53.913986
1.163e-008,-89.774986,77.388565
1.1645e-008,-89.544174,100.91985
1.166e-008,-89.321831,124.50446
1.1675e-008,-89.108368,148.13893
1.169e-008,-88.904129,171.81996
1.1705e-008,-88.709488,-164.45598
1.172e-008,-88.524773,-140.69215
1.1735e-008,-88.350311,-116.89176
1.175e-008,-88.186424,-93.057961
1.1765e-008,-88.033409,-69.193375
1.178e-008,-87.891609,-45.301075
1.1795e-008,-87.761314,-21.383366
1.181e-008,-87.642815,2.5572176
1.1825e-008,-87.536438,26.518612
1.184e-008,-87.442459,50.498913
1.1855e-008,-87.361198,74.496239
1.187e-008,-87.292961,98.50914
1.1885e-008,-87.238029,122.53627
1.19e-008,-87.196701,146.57642
1.1915e-008,-87.169266,170.62866
1.193e-008,-87.156013,-165.30772
1.1945e-008,-87.157219,-141.23346
1.196e-008,-87.173157,-117.14886
1.1975e-008,-87.204102,-93.054199
1.199e-008,-87.250328,-68.949623
1.2005e-008,-87.31208,-44.835091
1.202e-008,-87.389626,-20.710344
1.2035e-008,-87.4832,3.4249032
1.205e-008,-87.593063,27.571087
1.2065e-008,-87.71946,51.728821
1.208e-008,-87.862617,75.898781
1.2095e-008,-88.022781,100.08175
1.211e-008,-88.200203,124.27868
1.2125e-008,-88.395119,148.49049
1.214e-008,-88.60778,172.71829
1.2155e-008,-88.838455,-163.03679
1.217e-008,-89.087418,-138.7735
1.2185e-008,-89.354958,-114.49062
1.22e-008,-89.641403,-90.186798
1.2215e-008,-89.947098,-65.86071
1.223e-008,-90.272446,-41.51096
1.2245e-008,-90.617882,-17.13624
1.226e-008,-90.98391,7.2648821
1.2275e-008,-91.371124,31.693766
1.229e-008,-91.780212,56.15173
1.2305e-008,-92.211975,80.639977
1.232e-008,-92.667397,105.15988
1.2335e-008,-93.147591,129.71262
1.235e-008,-93.653954,154.29938
1.2365e-008,-94.188141,178.9212
1.238e-008,-94.752159,-156.42055
1.2395e-008,-95.348488,-131.72455
1.241e-008,-95.980133,-106.98952
1.2425e-008,-96.650833,-82.213524
1.244e-008,-97.365204,-57.394161
1.2455e-008,-98.12912,-32.528103
1.247e-008,-98.949913,-7.6104922
1.2485e-008,-99.837204,17.365828
1.25e-008,-100.80341,42.411461
1.2515e-008,-101.86523,67.543427
1.253e-008,-103.04562,92.78862
1.2545e-008,-104.37709,118.19192
1.256e-008,-105.90797,143.83206
1.2575e-008,-107.71408,169.85736
1.259e-008,-109.92408,-163.41914
1.2605e-008,-112.78045,-135.2206
1.262e-008,-116.81068,-103.0224
1.2635e-008,-123.13203,-53.682499
1.265e-008,-124.54069,51.280613
1.2665e-008,-118.08742,108.25675
1.268e-008,-114.0194,141.75854
1.2695e-008,-111.27792,170.27
1.271e-008,-109.25121,-162.97198
1.2725e-008,-107.66566,-137.03288
1.274e-008,-106.37984,-111.54935
1.2755e-008,-105.31231,-86.350204
1.277e-008,-104.41201,-61.344776
1.2785e-008,-103.64525,-36.480907
1.28e-008,-102.98858,-11.72581
1.2815e-008,-102.42525,12.942471
1.283e-008,-101.943,37.539341
1.2845e-008,-101.53249,62.076012
1.286e-008,-101.18674,86.56115
1.2875e-008,-100.90028,111.00222
1.289e-008,-100.66888,135.40535
1.2905e-008,-100.48923,159.77618
1.292e-008,-100.35876,-175.88042
1.2935e-008,-100.27545,-151.55865
1.295e-008,-100.23775,-127.25356
1.2965e-008,-100.24443,-102.9595
1.298e-008,-100.29461,-78.67038
1.2995e-008,-100.38763,-54.379646
1.301e-008,-100.52301,-30.079567
1.3025e-008,-100.70039,-5.7612829
1.304e-008,-100.9195,18.585192
1.3055e-008,-101.18012,42.972012
1.307e-008,-101.48201,67.413208
1.3085e-008,-101.8247,91.926056
1.31e-008,-102.20758,116.53085
1.3115e-008,-102.62962,141.25191
1.313e-008,-103.08917,166.11859
1.3145e-008,-103.5837,-168.83455
1.316e-008,-104.1093,-143.56721
1.3175e-008,-104.66032,-118.03337
1.319e-008,-105.22858,-92.182991
1.3205e-008,-105.80253,-65.964661
1.322e-008,-106.36665,-39.332798
1.3235e-008,-106.90079,-12.257812
1.325e-008,-107.38051,15.258896
1.3265e-008,-107.77872,43.168911
1.328e-008,-108.06879,71.363525
1.3295e-008,-108.22978,99.676064
1.331e-008,-108.2505,127.89963
1.3325e-008,-108.13248,155.82503
1.334e-008,-107.88839,-176.72099
1.3355e-008,-107.53844,-149.85188
1.337e-008,-107.10532,-123.61295
1.3385e-008,-106.61089,-97.993889
1.34e-008,-106.07362,-72.944244
1.3415e-008,-105.50851,-48.393459
1.343e-008,-104.927,-24.261181
1.3445e-008,-104.338,-0.468301
1.346e-008,-103.74818,23.059444
1.3475e-008,-103.16288,46.386822
1.349e-008,-102.58639,69.569397
1.3505e-008,-102.0222,92.654358
1.352e-008,-101.47321,115.6792
1.3535e-008,-100.94186,138.67422
1.355e-008,-100.43018,161.66293
1.3565e-008,-99.939857,-175.33669
1.358e-008,-99.472275,-152.31117
1.3595e-008,-99.028557,-129.25081
1.361e-008,-98.609482,-106.14883
1.3625e-008,-98.215752,-83.000793
1.364e-008,-97.847733,-59.80397
1.3655e-008,-97.505775,-36.556858
1.367e-008,-97.189957,-13.259036
1.3685e-008,-96.900269,10.088893
1.37e-008,-96.636688,33.486237
1.3715e-008,-96.398994,56.931904
1.373e-008,-96.186974,80.424149
1.3745e-008,-96.000336,103.9614
1.376e-008,-95.838737,127.54187
1.3775e-008,-95.701805,151.16379
1.379e-008,-95.589172,174.82542
1.3805e-008,-95.500397,-161.4754
1.382e-008,-95.435104,-137.74043
1.3835e-008,-95.392807,-113.97164
1.385e-008,-95.373131,-90.170906
1.3865e-008,-95.375618,-66.340324
1.388e-008,-95.399857,-42.481895
1.3895e-008,-95.445473,-18.597923
1.391e-008,-95.512032,5.3095965
1.3925e-008,-95.59919,29.238298
1.394e-008,-95.706581,53.185463
1.3955e-008,-95.8339,77.148651
1.397e-008,-95.980873,101.12483
1.3985e-008,-96.14724,125.11106
1.4e-008,-96.332817,149.10391
1.4015e-008,-96.537453,173.09978
1.403e-008,-96.761086,-162.90547
1.4045e-008,-97.003693,-138.91602
1.406e-008,-97.26532,-114.93665
1.4075e-008,-97.546135,-90.972588
1.409e-008,-97.846359,-67.029716
1.4105e-008,-98.166336,-43.114304
1.412e-008,-98.506516,-19.233522
1.4135e-008,-98.867447,4.6047883
1.415e-008,-99.249802,28.391626
1.4165e-008,-99.654427,52.116848
1.418e-008,-100.08224,75.769028
1.4195e-008,-100.53434,99.335022
1.421e-008,-101.01189,122.79939
1.4225e-008,-101.5162,146.14426
1.424e-008,-102.04871,169.34805
1.4255e-008,-102.61075,-167.61429
1.427e-008,-103.2037,-144.77322
1.4285e-008,-103.82866,-122.16586
1.43e-008,-104.48634,-99.837036
1.4315e-008,-105.17657,-77.840736
1.433e-008,-105.89783,-56.243061
1.4345e-008,-106.64629,-35.122261
1.436e-008,-107.41468,-14.568329
1.4375e-008,-108.19039,5.3199625
1.439e-008,-108.95374,24.447258
1.4405e-008,-109.67557,42.743908
1.442e-008,-110.31791,60.199711
1.4435e-008,-110.83701,76.910774
1.445e-008,-111.19234,93.108887
1.4465e-008,-111.35915,109.14983
1.448e-008,-111.33813,125.43718
1.4495e-008,-111.15517,142.32253
1.451e-008,-110.85109,160.03424
1.4525e-008,-110.46987,178.6665
1.454e-008,-110.04929,-161.79037
1.4555e-008,-109.61783,-141.40356
1.457e-008,-109.19476,-120.26493
1.4585e-008,-108.79189,-98.46711
1.46e-008,-108.41591,-76.093376
1.4615e-008,-108.06947,-53.215847
1.463e-008,-107.75285,-29.893932
1.4645e-008,-107.46483,-6.1761165
1.466e-008,-107.20282,17.898397
1.4675e-008,-106.96364,42.296757
1.469e-008,-106.74344,66.990631
1.4705e-008,-106.53813,91.954597
1.472e-008,-106.34341,117.16393
1.4735e-008,-106.15488,142.59471
1.475e-008,-105.96828,168.22095
1.4765e-008,-105.7796,-165.98506
1.478e-008,-105.58521,-140.05241
1.4795e-008,-105.38217,-114.01302
1.481e-008,-105.1681,-87.899788
1.4825e-008,-104.94154,-61.746162
1.484e-008,-104.70198,-35.585178
1.4855e-008,-104.44954,-9.4478178
1.487e-008,-104.18523,16.637766
1.4885e-008,-103.91063,42.646347
1.49e-008,-103.62785,68.558121
1.4915e-008,-103.33928,94.357224
1.493e-008,-103.04742,120.03196
1.4945e-008,-102.75485,145.57536
1.496e-008,-102.46403,170.98355
1.4975e-008,-102.17724,-163.74373
1.499e-008,-101.89651,-138.60483
1.5005e-008,-101.62366,-113.59583
1.502e-008,-101.36029,-88.711349
1.5035e-008,-101.10763,-63.945175
1.505e-008,-100.86679,-39.290325
1.5065e-008,-100.63864,-14.739456
1.508e-008,-100.4238,9.7145491
1.5095e-008,-100.22279,34.078812
1.511e-008,-100.03601,58.360573
1.5125e-008,-99.86367,82.566719
1.514e-008,-99.705917,106.70326
1.5155e-008,-99.562828,130.77646
1.517e-008,-99.434341,154.79131
1.5185e-008,-99.32045,178.75319
1.52e-008,-99.221016,-157.33344
1.5215e-008,-99.135857,-133.46457
1.523e-008,-99.064812,-109.63679
1.5245e-008,-99.00766,-85.846802
1.526e-008,-98.964096,-62.092239
1.5275e-008,-98.933929,-38.37101
1.529e-008,-98.91684,-14.681306
1.5305e-008,-98.912491,8.9777012
1.532e-008,-98.920555,32.606976
1.5335e-008,-98.940636,56.20668
1.535e-008,-98.972374,79.776703
1.5365e-008,-99.015366,103.31664
1.538e-008,-99.069092,126.82575
1.5395e-008,-99.133118,150.30252
1.541e-008,-99.206978,173.74579
1.5425e-008,-99.290062,-162.84604
1.544e-008,-99.381783,-139.47488
1.5455e-008,-99.48156,-116.1421
1.547e-008,-99.588638,-92.849808
1.5485e-008,-99.702446,-69.599457
1.55e-008,-99.822128,-46.392963
1.5515e-008,-99.947014,-23.230448
1.553e-008,-100.07619,-0.11367906
1.5545e-008,-100.20892,22.958252
1.556e-008,-100.34435,45.985046
1.5575e-008,-100.48167,68.969307
1.559e-008,-100.62009,91.912323
1.5605e-008,-100.75887,114.81837
1.562e-008,-100.89729,137.69069
1.5635e-008,-101.03486,160.53561
1.565e-008,-101.17095,-176.64076
1.5665e-008,-101.30538,-153.83054
1.568e-008,-101.43792,-131.02579
1.5695e-008,-101.56851,-108.21679
1.571e-008,-101.69744,-85.39357
1.5725e-008,-101.82504,-62.546326
1.574e-008,-101.95189,-39.664345
1.5755e-008,-102.07876,-16.736374
1.577e-008,-102.20662,6.2481284
1.5785e-008,-102.3364,29.299459
1.58e-008,-102.46941,52.428097
1.5815e-008,-102.60686,75.64431
1.583e-008,-102.75002,98.95697
1.5845e-008,-102.90024,122.37579
1.586e-008,-103.05874,145.90942
1.5875e-008,-103.22672,169.56662
1.589e-008,-103.40538,-166.64429
1.5905e-008,-103.59553,-142.71443
1.592e-008,-103.79794,-118.63596
1.5935e-008,-104.01311,-94.399803
1.595e-008,-104.24126,-69.997169
1.5965e-008,-104.48226,-45.419563
1.598e-008,-104.73557,-20.658068
1.5995e-008,-105.00025,4.2961979
1.601e-008,-105.2748,29.451099
1.6025e-008,-105.55722,54.813866
1.604e-008,-105.8449,80.389671
1.6055e-008,-106.13457,106.18156
1.607e-008,-106.42244,132.18811
1.6085e-008,-106.70426,158.4035
1.61e-008,-106.97523,-175.18379
1.6115e-008,-107.23067,-148.59357
1.613e-008,-107.46583,-121.8519
1.6145e-008,-107.67661,-94.992813
1.616e-008,-107.85958,-68.057396
1.6175e-008,-108.01269,-41.091515
1.619e-008,-108.13506,-14.142163
1.6205e-008,-108.22725,12.742113
1.622e-008,-108.29112,39.517715
1.6235e-008,-108.32969,66.146301
1.625e-008,-108.34663,92.597084
1.6265e-008,-108.34608,118.84707
1.628e-008,-108.33216,144.88173
1.6295e-008,-108.30872,170.6945
1.631e-008,-108.27934,-163.71504
1.6325e-008,-108.24686,-138.34206
1.634e-008,-108.2136,-113.17675
1.6355e-008,-108.18122,-88.205902
1.637e-008,-108.15087,-63.414135
1.6385e-008,-108.12306,-38.784142
1.64e-008,-108.09801,-14.296184
1.6415e-008,-108.07543,10.069441
1.643e-008,-108.05492,34.332699
1.6445e-008,-108.03568,58.515125
1.646e-008,-108.01694,82.637428
1.6475e-008,-107.99786,106.71974
1.649e-008,-107.97754,130.78195
1.6505e-008,-107.95512,154.84177
1.652e-008,-107.92984,178.91571
1.6535e-008,-107.90108,-156.98187
1.655e-008,-107.86821,-132.83931
1.6565e-008,-107.83085,-108.6478
1.658e-008,-107.78872,-84.401451
1.6595e-008,-107.74184,-60.098591
1.661e-008,-107.69017,-35.739807
1.6625e-008,-107.63408,-11.329453
1.664e-008,-107.57409,13.123941
1.6655e-008,-107.51102,37.609531
1.667e-008,-107.44593,62.114868
1.6685e-008,-107.3802,86.622787
1.67e-008,-107.31545,111.1171
1.6715e-008,-107.25363,135.57787
1.673e-008,-107.19698,159.98569
1.6745e-008,-107.14784,-175.68071
1.676e-008,-107.10887,-151.44194
1.6775e-008,-107.08279,-127.32083
1.679e-008,-107.0724,-103.33934
1.6805e-008,-107.08055,-79.521622
1.682e-008,-107.10999,-55.89296
1.6835e-008,-107.16319,-32.480038
1.685e-008,-107.24256,-9.3142586
1.6865e-008,-107.34987,13.570705
1.688e-008,-107.48641,36.135921
1.6895e-008,-107.65231,58.336037
1.691e-008,-107.84646,80.119141
1.6925e-008,-108.0657,101.42694
1.694e-008,-108.30408,122.19457
1.6955e-008,-108.5519,142.35597
1.697e-008,-108.79468,161.85011
1.6985e-008,-109.01224,-179.36459
1.7e-008,-109.17913,-161.29182
1.7015e-008,-109.26649,-143.87239
1.703e-008,-109.2463,-126.97006
1.7045e-008,-109.09811,-110.3693
1.706e-008,-108.81474,-93.80722
1.7075e-008,-108.40469,-77.02256
1.709e-008,-107.88964,-59.803757
1.7105e-008,-107.29819,-42.019424
1.712e-008,-106.6597,-23.614964
1.7135e-008,-105.99992,-4.5968256
1.715e-008,-105.33936,14.991869
1.7165e-008,-104.69292,35.09024
1.718e-008,-104.071,55.632576
1.7195e-008,-103.48016,76.555824
1.721e-008,-102.92457,97.803261
1.7225e-008,-102.40649,119.3258
1.724e-008,-101.92698,141.08226
1.7255e-008,-101.48621,163.03806
1.727e-008,-101.08394,-174.83534
1.7285e-008,-100.71947,-152.56134
1.73e-008,-100.39207,-130.15863
1.7315e-008,-100.10083,-107.64229
1.733e-008,-99.844772,-85.024376
1.7345e-008,-99.622932,-62.313522
1.736e-008,-99.434456,-39.516945
1.7375e-008,-99.278442,-16.639055
1.739e-008,-99.153976,6.3178086
1.7405e-008,-99.060333,29.351959
1.742e-008,-98.996651,52.464886
1.7435e-008,-98.962296,75.658211
1.745e-008,-98.956451,98.936401
1.7465e-008,-98.978409,122.30413
1.748e-008,-99.027443,145.76869
1.7495e-008,-99.102722,169.33795
1.751e-008,-99.2034,-166.97771
1.7525e-008,-99.328499,-143.16716
1.754e-008,-99.47683,-119.21721
1.7555e-008,-99.646927,-95.113556
1.757e-008,-99.837128,-70.840042
1.7585e-008,-100.04526,-46.379944
1.76e-008,-100.26865,-21.715231
1.7615e-008,-100.50395,3.1716113
1.763e-008,-100.74715,28.297607
1.7645e-008,-100.99329,53.676945
1.766e-008,-101.2366,79.319763
1.7675e-008,-101.47042,105.23008
1.769e-008,-101.68736,131.40215
1.7705e-008,-101.87968,157.81927
1.772e-008,-102.03976,-175.54897
1.7735e-008,-102.16085,-148.74637
1.775e-008,-102.23756,-121.83054
1.7765e-008,-102.26685,-94.867561
1.778e-008,-102.24812,-67.928741
1.7795e-008,-102.1836,-41.083706
1.781e-008,-102.07781,-14.39546
1.7825e-008,-101.93717,12.084441
1.784e-008,-101.76913,38.317326
1.7855e-008,-101.5816,64.278191
1.787e-008,-101.38223,89.953674
1.7885e-008,-101.17804,115.34082
1.79e-008,-100.97519,140.44386
1.7915e-008,-100.77887,165.27164
1.793e-008,-100.59328,-170.16374
1.7945e-008,-100.42175,-145.84894
1.796e-008,-100.26679,-121.77003
1.7975e-008,-100.13016,-97.914375
1.799e-008,-100.0131,-74.269279
1.8005e-008,-99.91629,-50.823795
1.802e-008,-99.840012,-27.567955
1.8035e-008,-99.784119,-4.492969
1.805e-008,-99.748184,18.409111
1.8065e-008,-99.731483,41.145451
1.808e-008,-99.733078,63.722549
1.8095e-008,-99.751747,86.146988
1.811e-008,-99.786156,108.4255
1.8125e-008,-99.834793,130.56499
1.814e-008,-99.896042,152.57306
1.8155e-008,-99.968231,174.45908
1.817e-008,-100.04965,-163.76721
1.8185e-008,-100.13871,-142.09377
1.82e-008,-100.23385,-120.50761
1.8215e-008,-100.33382,-98.993874
1.823e-008,-100.43749,-77.536057
1.8245e-008,-100.5442,-56.116966
1.826e-008,-100.65357,-34.717758
1.8275e-008,-100.76571,-13.32034
1.829e-008,-100.88109,8.0943317
1.8305e-008,-101.00067,29.544458
1.832e-008,-101.12587,51.047081
1.8335e-008,-101.25838,72.617638
1.835e-008,-101.40029,94.270531
1.8365e-008,-101.55392,116.01756
1.838e-008,-101.72195,137.86923
1.8395e-008,-101.90701,159.83395
1.841e-008,-102.11205,-178.08156
1.8425e-008,-102.34012,-155.87177
1.844e-008,-102.59433,-133.53322
1.8455e-008,-102.87793,-111.06158
1.847e-008,-103.19428,-88.454437
1.8485e-008,-103.54704,-65.708923
1.85e-008,-103.94,-42.821877
1.8515e-008,-104.3774,-19.788588
1.853e-008,-104.86388,3.3957253
1.8545e-008,-105.40478,26.740252
1.856e-008,-106.00625,50.255451
1.8575e-008,-106.67563,73.958626
1.859e-008,-107.4217,97.872879
1.8605e-008,-108.25549,122.03291
1.862e-008,-109.19068,146.49037
1.8635e-008,-110.24522,171.32144
1.865e-008,-111.44227,-163.35118
1.8665e-008,-112.81296,-137.3309
1.868e-008,-114.3982,-110.27701
1.8695e-008,-116.24903,-81.573372
1.871e-008,-118.41273,-50.021667
1.8725e-008,-120.84377,-13.278802
1.874e-008,-123.05585,32.216351
1.8755e-008,-123.70025,85.522972
1.877e-008,-122.32394,134.9034
1.8785e-008,-120.28749,174.79814
1.88e-008,-118.41687,-151.72566
1.8815e-008,-116.86314,-121.7309
1.883e-008,-115.59653,-93.656273
1.8845e-008,-114.56413,-66.707466
1.886e-008,-113.72121,-40.457153
1.8875e-008,-113.03312,-14.66118
1.889e-008,-112.47456,10.829113
1.8905e-008,-112.02596,36.107941
1.892e-008,-111.6729,61.238705
1.8935e-008,-111.40382,86.26593
1.895e-008,-111.21012,111.21996
1.8965e-008,-111.08463,136.1263
1.898e-008,-111.02174,161.0022
1.8995e-008,-111.01705,-174.13547
1.901e-008,-111.06688,-149.27452
1.9025e-008,-111.16853,-124.4025
1.904e-008,-111.31935,-99.506554
1.9055e-008,-111.51781,-74.573761
1.907e-008,-111.76222,-49.591614
1.9085e-008,-112.05162,-24.543619
1.91e-008,-112.38498,0.58857799
1.9115e-008,-112.76173,25.825882
1.913e-008,-113.18079,51.194607
1.9145e-008,-113.64175,76.726036
1.916e-008,-114.14321,102.45837
1.9175e-008,-114.68365,128.43837
1.919e-008,-115.26003,154.72456
1.9205e-008,-115.868,-178.62119
1.922e-008,-116.49993,-151.51703
1.9235e-008,-117.14478,-123.88113
1.925e-008,-117.78548,-95.627403
1.9265e-008,-118.39847,-66.687561
1.928e-008,-118.95193,-37.0275
1.9295e-008,-119.40938,-6.6983643
1.931e-008,-119.7328,24.158209
1.9325e-008,-119.89355,55.28479
1.934e-008,-119.88161,86.355682
1.9355e-008,-119.70683,117.04632
1.937e-008,-119.39828,147.1078
1.9385e-008,-118.99233,176.39198
1.94e-008,-118.52567,-155.13493
1.9415e-008,-118.02939,-127.43998
1.943e-008,-117.52589,-100.45184
1.9445e-008,-117.03184,-74.078018
1.946e-008,-116.55775,-48.234295
1.9475e-008,-116.11102,-22.834339
1.949e-008,-115.69501,2.1862636
1.9505e-008,-115.31256,26.89303
1.952e-008,-114.96545,51.329605
1.9535e-008,-114.65379,75.541145
1.955e-008,-114.37815,99.559853
1.9565e-008,-114.13905,123.41319
1.958e-008,-113.93633,147.1239
1.9595e-008,-113.77046,170.70981
1.961e-008,-113.6414,-165.81506
1.9625e-008,-113.5499,-142.44009
1.964e-008,-113.49611,-119.15742
1.9655e-008,-113.48125,-95.961563
1.967e-008,-113.50562,-72.848801
1.9685e-008,-113.57043,-49.818989
1.97e-008,-113.67719,-26.872669
1.9715e-008,-113.82692,-4.0145588
1.973e-008,-114.02156,18.750769
1.9745e-008,-114.26304,41.412521
1.976e-008,-114.55381,63.958778
1.9775e-008,-114.89651,86.373451
1.979e-008,-115.29439,108.63348
1.9805e-008,-115.75092,130.71021
1.982e-008,-116.27035,152.56544
1.9835e-008,-116.85741,174.14665
1.985e-008,-117.51709,-164.61522
1.9865e-008,-118.25445,-143.81378
1.988e-008,-119.07404,-123.57941
1.9895e-008,-119.97736,-104.08976
1.991e-008,-120.95995,-85.591049
1.9925e-008,-122.00356,-68.409561
1.994e-008,-123.06245,-52.936203
1.9955e-008,-124.04481,-39.538216
1.997e-008,-124.80133,-28.284864
1.9985e-008,-125.16076,-18.549704
2e-008,-125.03154,-8.9522858
END

