!CSV A.01.01
!Keysight Technologies,N5227B,US58420762,A.13.80.08
!Date: Tuesday, November 21, 2023 09:52:48
!Source: Standard

BEGIN CH1_DATA
Freq(Hz),S21(DB),S21(DEG)
3000000000,-59.694706,30.842167
3003000000,-59.46418,21.078188
3006000000,-59.462002,11.020796
3009000000,-59.033623,1.2109902
3012000000,-58.907375,-10.595811
3015000000,-59.115898,-21.554609
3018000000,-59.020763,-31.844887
3021000000,-59.135044,-41.909977
3024000000,-59.184345,-52.295372
3027000000,-59.203094,-62.921799
3030000000,-59.172466,-71.855812
3033000000,-59.268791,-82.174011
3036000000,-59.285961,-91.096603
3039000000,-59.49432,-101.80949
3042000000,-59.549713,-110.04597
3045000000,-59.221951,-120.02082
3048000000,-59.214211,-126.87197
3051000000,-59.201515,-137.17039
3054000000,-58.944328,-147.32329
3057000000,-58.823261,-158.18933
3060000000,-58.885437,-168.34268
3063000000,-58.932945,-177.76642
3066000000,-58.795078,172.62192
3069000000,-59.124905,161.91124
3072000000,-58.713963,152.26848
3075000000,-58.715828,143.16809
3078000000,-58.826664,131.91368
3081000000,-58.757736,123.34535
3084000000,-58.732109,114.90913
3087000000,-58.483345,105.17583
3090000000,-58.520683,94.948166
3093000000,-58.309246,84.159042
3096000000,-58.150112,73.986618
3099000000,-58.042858,64.042152
3102000000,-57.906158,52.864475
3105000000,-58.060513,41.671608
3108000000,-57.822948,32.347237
3111000000,-57.826298,21.464022
3114000000,-58.090218,9.5278587
3117000000,-58.422131,0.22285321
3120000000,-58.432434,-8.8726997
3123000000,-58.399952,-16.427851
3126000000,-58.315472,-26.355156
3129000000,-57.989029,-36.261356
3132000000,-57.766331,-45.172138
3135000000,-57.399632,-57.727566
3138000000,-57.648838,-68.167206
3141000000,-57.698532,-79.581551
3144000000,-57.752937,-90.370956
3147000000,-57.864811,-100.77227
3150000000,-58.218849,-109.7981
3153000000,-58.388477,-119.54366
3156000000,-58.219749,-127.35821
3159000000,-58.229126,-137.75677
3162000000,-58.112591,-145.94458
3165000000,-57.865501,-157.15025
3168000000,-57.954464,-166.91782
3171000000,-57.869766,-177.248
3174000000,-58.028904,172.61443
3177000000,-57.923019,162.51158
3180000000,-58.013622,153.11659
3183000000,-57.928467,144.31744
3186000000,-57.749313,136.00238
3189000000,-57.427193,125.23434
3192000000,-57.507278,114.92524
3195000000,-57.334518,103.77756
3198000000,-57.209579,92.116226
3201000000,-57.327152,82.332115
3204000000,-57.244419,70.419785
3207000000,-57.160412,60.994095
3210000000,-57.277481,51.193863
3213000000,-57.262321,40.729237
3216000000,-57.455372,30.084084
3219000000,-57.425175,21.269186
3222000000,-57.215862,11.96109
3225000000,-57.278622,1.2600248
3228000000,-57.186554,-11.304958
3231000000,-57.045673,-21.888794
3234000000,-57.198517,-33.544636
3237000000,-57.425098,-43.365288
3240000000,-57.606979,-54.028389
3243000000,-57.857594,-64.213692
3246000000,-57.77314,-72.921692
3249000000,-57.967918,-83.156281
3252000000,-58.002804,-93.083817
3255000000,-58.191479,-100.3101
3258000000,-58.028351,-110.77073
3261000000,-58.035515,-120.30205
3264000000,-57.883747,-130.36957
3267000000,-57.958824,-140.9296
3270000000,-58.007122,-151.69537
3273000000,-58.124928,-161.35983
3276000000,-58.064777,-169.13889
3279000000,-57.915905,179.99457
3282000000,-57.937416,168.83328
3285000000,-58.006905,158.34767
3288000000,-58.192547,148.73311
3291000000,-58.243675,140.14951
3294000000,-58.389126,131.58438
3297000000,-58.171234,121.86617
3300000000,-58.322117,112.1174
3303000000,-58.048252,103.11292
3306000000,-57.820324,91.914955
3309000000,-57.82877,82.069908
3312000000,-57.936359,70.877159
3315000000,-57.877155,60.591087
3318000000,-58.006416,49.821178
3321000000,-58.319984,41.473263
3324000000,-58.283569,28.591488
3327000000,-58.304031,21.817278
3330000000,-58.198898,11.17709
3333000000,-58.262512,1.6000141
3336000000,-58.059135,-9.8773689
3339000000,-58.289795,-20.382046
3342000000,-58.534595,-30.991516
3345000000,-58.832439,-41.337273
3348000000,-58.9319,-49.647594
3351000000,-59.055496,-57.821827
3354000000,-59.066883,-65.824516
3357000000,-59.11047,-73.309807
3360000000,-58.752686,-84.245468
3363000000,-58.626587,-92.683891
3366000000,-58.371014,-104.244
3369000000,-58.259373,-113.42699
3372000000,-58.400135,-127.03323
3375000000,-58.402687,-137.23415
3378000000,-58.452202,-145.36034
3381000000,-58.638794,-155.13164
3384000000,-58.693558,-163.28896
3387000000,-58.654175,-172.46136
3390000000,-58.653938,177.53865
3393000000,-58.501488,168.67557
3396000000,-58.425743,158.31837
3399000000,-58.560646,147.79921
3402000000,-58.254646,138.78992
3405000000,-58.278381,126.50996
3408000000,-58.405773,115.71194
3411000000,-58.508427,105.0209
3414000000,-58.587845,94.419365
3417000000,-58.798866,85.171516
3420000000,-58.962215,77.811745
3423000000,-58.687759,67.54995
3426000000,-58.51186,59.424252
3429000000,-58.357216,46.558823
3432000000,-58.580585,35.665405
3435000000,-58.738102,27.537544
3438000000,-58.782253,17.700411
3441000000,-59.128269,7.5472312
3444000000,-59.020329,-1.7775171
3447000000,-58.913616,-10.387731
3450000000,-59.066521,-21.386158
3453000000,-59.077469,-30.635761
3456000000,-59.021191,-40.154346
3459000000,-59.242908,-50.339153
3462000000,-59.133728,-58.997761
3465000000,-59.183678,-65.375862
3468000000,-59.120892,-76.445198
3471000000,-58.719505,-86.074371
3474000000,-58.714397,-96.538162
3477000000,-58.913162,-107.02847
3480000000,-59.100143,-116.30141
3483000000,-59.092201,-124.94772
3486000000,-59.022686,-135.38506
3489000000,-58.889141,-144.44208
3492000000,-58.61618,-154.02866
3495000000,-58.594612,-163.59886
3498000000,-58.564823,-174.80087
3501000000,-58.489883,175.91788
3504000000,-58.327164,164.6593
3507000000,-58.180622,153.76059
3510000000,-58.058193,142.48236
3513000000,-58.451035,130.88817
3516000000,-58.663921,121.552
3519000000,-58.618961,111.08344
3522000000,-58.922794,102.02625
3525000000,-58.867371,93.070229
3528000000,-59.126518,84.56897
3531000000,-59.081036,75.201187
3534000000,-58.968842,65.528183
3537000000,-58.841763,56.473587
3540000000,-58.47599,48.002125
3543000000,-58.348049,36.958172
3546000000,-58.302124,25.486488
3549000000,-58.280647,14.396173
3552000000,-58.492245,2.9653602
3555000000,-58.74205,-7.6481481
3558000000,-59.316223,-16.264236
3561000000,-59.134102,-25.914583
3564000000,-59.170559,-34.955006
3567000000,-59.367222,-43.230404
3570000000,-59.108921,-51.801662
3573000000,-58.901505,-59.769608
3576000000,-58.4702,-70.828087
3579000000,-58.662052,-81.113182
3582000000,-58.599586,-92.300949
3585000000,-58.539116,-103.62804
3588000000,-58.635086,-114.71925
3591000000,-58.736198,-125.05276
3594000000,-58.901051,-133.69081
3597000000,-58.823826,-143.87975
3600000000,-58.825634,-153.52312
3603000000,-59.061787,-162.25076
3606000000,-59.223412,-171.10953
3609000000,-59.149006,176.70151
3612000000,-59.206493,167.6568
3615000000,-59.134518,157.72261
3618000000,-59.363712,149.12181
3621000000,-59.203979,138.63046
3624000000,-59.267471,130.86487
3627000000,-58.949608,120.54941
3630000000,-58.83773,110.25399
3633000000,-58.90461,97.704575
3636000000,-59.108917,88.499466
3639000000,-59.135841,79.748093
3642000000,-58.952854,69.024986
3645000000,-59.519718,59.041637
3648000000,-59.527149,49.978569
3651000000,-59.352921,42.959641
3654000000,-59.356148,32.996498
3657000000,-59.468739,23.417446
3660000000,-59.087521,13.037807
3663000000,-58.97747,4.0323701
3666000000,-58.859322,-5.8694501
3669000000,-58.757488,-18.779428
3672000000,-58.938747,-27.530739
3675000000,-58.979084,-39.463215
3678000000,-58.925598,-49.044041
3681000000,-59.008087,-58.718124
3684000000,-59.172123,-69.365196
3687000000,-59.442379,-80.328705
3690000000,-59.674034,-89.38694
3693000000,-59.726337,-97.175316
3696000000,-59.670116,-106.26357
3699000000,-59.542046,-113.98268
3702000000,-59.674282,-124.00365
3705000000,-59.371037,-132.69644
3708000000,-59.420837,-143.75116
3711000000,-59.493168,-152.74637
3714000000,-59.266644,-163.46323
3717000000,-59.230087,-172.54057
3720000000,-59.050915,175.2251
3723000000,-59.266087,163.59283
3726000000,-59.807465,154.15569
3729000000,-59.841,144.2758
3732000000,-59.906109,136.34721
3735000000,-60.044144,129.85146
3738000000,-60.095497,118.4859
3741000000,-59.808395,110.63236
3744000000,-59.46735,100.74078
3747000000,-59.479942,90.749046
3750000000,-59.490307,80.001747
3753000000,-59.337574,70.573334
3756000000,-59.49435,59.562351
3759000000,-59.573048,49.411518
3762000000,-59.037151,39.805237
3765000000,-59.649792,27.390875
3768000000,-59.625954,18.129904
3771000000,-59.862434,8.6858921
3774000000,-60.093533,0.1842884
3777000000,-60.235489,-8.169878
3780000000,-60.091606,-17.491095
3783000000,-59.611275,-26.129744
3786000000,-59.50116,-36.323559
3789000000,-59.482838,-46.382557
3792000000,-59.389812,-55.889786
3795000000,-59.26001,-66.081215
3798000000,-59.081619,-76.755463
3801000000,-59.287025,-88.609558
3804000000,-59.200809,-97.770424
3807000000,-59.888313,-107.06878
3810000000,-59.772171,-116.96011
3813000000,-59.648983,-123.91756
3816000000,-59.746655,-133.24783
3819000000,-59.617832,-142.91006
3822000000,-59.421417,-153.00685
3825000000,-59.323479,-162.8726
3828000000,-59.397305,-172.02794
3831000000,-59.181107,175.51945
3834000000,-59.243896,166.92877
3837000000,-59.128319,158.9279
3840000000,-59.093307,147.30957
3843000000,-59.242599,136.77419
3846000000,-58.974052,128.2635
3849000000,-58.97876,117.19428
3852000000,-59.033455,106.76916
3855000000,-58.901348,95.238083
3858000000,-58.846767,84.824287
3861000000,-59.456131,76.242447
3864000000,-59.337944,65.432098
3867000000,-59.18264,56.650097
3870000000,-59.061417,46.246494
3873000000,-59.220528,36.413208
3876000000,-59.068516,24.97397
3879000000,-59.39278,14.463261
3882000000,-59.005833,5.8350506
3885000000,-59.208794,-3.5911014
3888000000,-59.352966,-15.069235
3891000000,-59.515533,-23.749714
3894000000,-59.436497,-34.014397
3897000000,-59.700779,-44.683773
3900000000,-59.874043,-50.853821
3903000000,-59.550167,-60.695412
3906000000,-59.396019,-70.683571
3909000000,-59.292625,-79.852158
3912000000,-59.109772,-90.619553
3915000000,-59.055527,-100.69802
3918000000,-59.085167,-111.40814
3921000000,-58.934723,-121.18198
3924000000,-58.82962,-132.41415
3927000000,-58.874146,-140.71919
3930000000,-59.088673,-153.49957
3933000000,-59.236584,-161.37045
3936000000,-59.090046,-172.66116
3939000000,-59.159134,177.93037
3942000000,-59.240952,166.08604
3945000000,-59.051563,156.82487
3948000000,-59.242367,147.45119
3951000000,-59.2845,137.09557
3954000000,-59.406094,125.8419
3957000000,-59.556122,116.61313
3960000000,-59.4114,104.38486
3963000000,-59.689976,95.68103
3966000000,-59.761139,86.229233
3969000000,-59.832424,78.967583
3972000000,-59.920174,68.900261
3975000000,-59.845646,59.291069
3978000000,-59.733135,49.405396
3981000000,-59.608067,39.421848
3984000000,-59.720604,29.912661
3987000000,-59.782131,19.736526
3990000000,-59.858894,9.6075449
3993000000,-59.674496,0.88496161
3996000000,-59.484173,-10.857738
3999000000,-59.912941,-22.070555
4002000000,-59.6838,-32.518795
4005000000,-60.095177,-43.304424
4008000000,-59.703285,-49.89537
4011000000,-60.156223,-60.181816
4014000000,-59.78574,-69.437378
4017000000,-60.049397,-78.189957
4020000000,-59.814552,-87.131889
4023000000,-59.641052,-97.766426
4026000000,-59.354786,-110.20077
4029000000,-59.45615,-123.10311
4032000000,-59.569511,-133.00504
4035000000,-60.103069,-143.37968
4038000000,-60.346493,-153.65961
4041000000,-60.738335,-162.02742
4044000000,-60.457684,-170.62119
4047000000,-60.604061,179.76617
4050000000,-60.734093,172.50679
4053000000,-60.808712,162.83942
4056000000,-60.712982,153.89252
4059000000,-60.362671,141.45824
4062000000,-59.988079,130.63441
4065000000,-60.199657,118.72728
4068000000,-60.562931,109.65911
4071000000,-60.885727,98.458603
4074000000,-61.125835,89.286819
4077000000,-61.405548,79.860847
4080000000,-61.406528,71.825119
4083000000,-61.761013,64.44693
4086000000,-61.700668,56.2216
4089000000,-61.399563,46.183205
4092000000,-61.150108,38.027092
4095000000,-60.969418,27.649887
4098000000,-61.069817,17.195536
4101000000,-61.048485,7.1683254
4104000000,-61.227097,-4.0638013
4107000000,-61.372326,-11.60229
4110000000,-61.280056,-20.021267
4113000000,-61.184772,-34.176601
4116000000,-61.148411,-40.154449
4119000000,-61.261356,-52.625702
4122000000,-60.887737,-59.775917
4125000000,-60.995518,-69.43882
4128000000,-61.205616,-82.258247
4131000000,-61.294018,-93.637718
4134000000,-61.596149,-101.54592
4137000000,-62.142181,-109.09076
4140000000,-61.691647,-119.27674
4143000000,-61.420341,-127.20696
4146000000,-61.264782,-136.86588
4149000000,-60.909504,-149.55772
4152000000,-61.142223,-160.98705
4155000000,-61.372959,-172.79219
4158000000,-61.685299,176.04401
4161000000,-62.286152,166.64558
4164000000,-62.12355,159.62503
4167000000,-62.573257,152.44731
4170000000,-62.862083,144.38748
4173000000,-62.462273,138.7561
4176000000,-62.398445,127.57724
4179000000,-62.52512,120.05634
4182000000,-62.378326,111.05508
4185000000,-61.632858,99.701759
4188000000,-61.745689,89.659164
4191000000,-61.535534,80.719513
4194000000,-61.506348,71.178444
4197000000,-61.551136,59.769108
4200000000,-61.670254,47.820599
4203000000,-61.56403,44.310631
4206000000,-61.401093,31.96314
4209000000,-61.216469,20.963266
4212000000,-61.221291,10.551262
4215000000,-61.829548,0.0039312225
4218000000,-61.777824,-11.112646
4221000000,-62.039013,-18.23127
4224000000,-61.731468,-27.256809
4227000000,-61.545746,-35.907963
4230000000,-61.630047,-43.959663
4233000000,-61.275089,-56.135353
4236000000,-61.16383,-66.64521
4239000000,-60.958641,-79.37291
4242000000,-61.422951,-92.090485
4245000000,-61.351074,-103.46333
4248000000,-61.819778,-111.85824
4251000000,-62.731052,-120.87523
4254000000,-62.49456,-128.96375
4257000000,-62.564949,-133.26547
4260000000,-62.32909,-140.00659
4263000000,-61.770832,-151.26546
4266000000,-61.41552,-159.6555
4269000000,-61.427296,-173.26328
4272000000,-61.086071,177.96594
4275000000,-61.259357,166.90468
4278000000,-61.107613,153.92232
4281000000,-61.319443,146.89182
4284000000,-61.574486,133.73479
4287000000,-62.022049,126.22816
4290000000,-61.881031,118.31053
4293000000,-62.007111,109.04864
4296000000,-61.809746,100.70126
4299000000,-61.603836,89.573318
4302000000,-61.413597,80.541008
4305000000,-61.455765,69.89399
4308000000,-61.456604,61.765266
4311000000,-61.139328,50.994537
4314000000,-61.14777,41.976799
4317000000,-60.888618,29.736322
4320000000,-60.99015,17.416447
4323000000,-61.247158,6.6438093
4326000000,-61.364418,-5.7570109
4329000000,-61.64315,-15.380849
4332000000,-62.037159,-27.073004
4335000000,-62.253757,-34.569149
4338000000,-62.386826,-41.70705
4341000000,-62.261955,-49.571396
4344000000,-61.996296,-59.700825
4347000000,-61.993519,-69.697212
4350000000,-61.919014,-78.228477
4353000000,-61.731533,-90.209114
4356000000,-62.379574,-102.37888
4359000000,-62.366096,-107.08233
4362000000,-62.544918,-117.67038
4365000000,-62.234402,-124.80092
4368000000,-62.215317,-134.00876
4371000000,-62.066868,-144.84036
4374000000,-61.678413,-157.84401
4377000000,-61.777935,-167.65463
4380000000,-61.649372,-178.34207
4383000000,-61.821499,171.34546
4386000000,-62.317856,162.59203
4389000000,-62.420082,153.41212
4392000000,-62.209438,142.64104
4395000000,-62.913219,135.84041
4398000000,-62.642879,126.1157
4401000000,-62.366005,117.9436
4404000000,-62.078892,109.33691
4407000000,-61.995422,97.991028
4410000000,-61.641075,87.595291
4413000000,-61.77396,77.127426
4416000000,-62.021603,65.099991
4419000000,-61.901936,55.761421
4422000000,-61.658943,43.039413
4425000000,-62.603405,31.9863
4428000000,-63.007034,24.19623
4431000000,-62.810223,16.939117
4434000000,-62.983093,7.6061416
4437000000,-62.613308,0.98755795
4440000000,-62.211395,-7.459465
4443000000,-62.209927,-19.454464
4446000000,-61.771198,-30.687641
4449000000,-61.875935,-45.064789
4452000000,-61.774773,-53.49704
4455000000,-62.625416,-62.702045
4458000000,-62.495331,-73.05368
4461000000,-62.676559,-82.809669
4464000000,-63.009113,-92.87056
4467000000,-62.881184,-101.53437
4470000000,-63.337074,-114.5785
4473000000,-63.529816,-118.87933
4476000000,-63.273018,-129.52124
4479000000,-63.694141,-139.55756
4482000000,-63.508629,-146.18544
4485000000,-63.569553,-153.96701
4488000000,-63.177372,-165.31143
4491000000,-63.042984,-175.2919
4494000000,-62.874725,175.16916
4497000000,-62.921665,166.24854
4500000000,-62.622932,154.70261
4503000000,-63.149818,143.99466
4506000000,-63.242935,132.76497
4509000000,-63.38805,125.58559
4512000000,-64.520538,115.41425
4515000000,-64.48616,104.69424
4518000000,-64.585495,97.423271
4521000000,-64.653503,94.003471
4524000000,-64.181374,85.756615
4527000000,-63.777699,75.69577
4530000000,-63.237217,67.384972
4533000000,-62.64846,57.328831
4536000000,-62.46019,40.624092
4539000000,-63.261871,33.772423
4542000000,-63.691593,20.968605
4545000000,-63.756344,11.714349
4548000000,-64.254707,0.63472962
4551000000,-64.773651,-7.1282768
4554000000,-65.282249,-13.002353
4557000000,-64.186165,-18.440229
4560000000,-64.271332,-27.177982
4563000000,-64.118538,-35.332436
4566000000,-63.548138,-48.274319
4569000000,-63.590828,-55.247166
4572000000,-63.343086,-66.197945
4575000000,-63.052738,-77.498917
4578000000,-63.283413,-85.937363
4581000000,-62.727882,-98.332809
4584000000,-63.553276,-103.46398
4587000000,-62.873566,-117.79893
4590000000,-63.576225,-125.90604
4593000000,-63.096802,-132.30679
4596000000,-63.689381,-144.99815
4599000000,-62.885967,-152.08994
4602000000,-63.376282,-161.87134
4605000000,-62.97678,-171.57939
4608000000,-63.152325,-176.1284
4611000000,-62.552586,175.12238
4614000000,-62.359909,161.74843
4617000000,-62.231865,151.81592
4620000000,-62.228561,140.77115
4623000000,-61.465408,126.24837
4626000000,-62.082142,115.38155
4629000000,-62.242546,106.3675
4632000000,-62.859875,96.271576
4635000000,-62.675041,88.183784
4638000000,-62.663174,83.791595
4641000000,-62.160011,77.311195
4644000000,-61.965672,64.717186
4647000000,-61.53524,50.04097
4650000000,-61.935436,39.405964
4653000000,-61.329746,26.733828
4656000000,-61.645565,17.72707
4659000000,-61.987198,5.9518948
4662000000,-62.671635,-4.5971751
4665000000,-62.725018,-11.827677
4668000000,-62.455585,-17.040424
4671000000,-62.43898,-29.117241
4674000000,-62.383286,-39.326942
4677000000,-62.336727,-48.70174
4680000000,-62.041622,-54.2076
4683000000,-61.945339,-69.34613
4686000000,-62.176132,-77.998352
4689000000,-61.70311,-85.500244
4692000000,-62.197266,-96.512054
4695000000,-61.992237,-107.65989
4698000000,-62.289227,-115.81238
4701000000,-61.915184,-127.4527
4704000000,-62.172733,-134.10637
4707000000,-61.785175,-141.89136
4710000000,-61.72876,-152.21025
4713000000,-61.707104,-162.69751
4716000000,-61.4617,-174.73232
4719000000,-61.359787,172.01126
4722000000,-61.577385,163.18694
4725000000,-61.782402,153.61252
4728000000,-61.608643,143.74976
4731000000,-61.788425,136.18135
4734000000,-61.221771,126.95302
4737000000,-61.444054,116.08575
4740000000,-60.982716,106.31239
4743000000,-61.395653,94.174004
4746000000,-61.041557,81.0541
4749000000,-61.639099,71.254707
4752000000,-61.957794,63.34967
4755000000,-61.94949,56.160576
4758000000,-61.925068,44.936329
4761000000,-61.668552,40.026417
4764000000,-61.657963,25.942417
4767000000,-61.219231,10.716
4770000000,-61.32077,3.0757258
4773000000,-61.725269,-10.453633
4776000000,-62.172501,-15.56095
4779000000,-62.450684,-24.831486
4782000000,-62.743301,-33.444881
4785000000,-62.359585,-39.746841
4788000000,-61.751713,-48.840168
4791000000,-61.679249,-58.550076
4794000000,-61.63987,-69.776886
4797000000,-61.541142,-80.217743
4800000000,-61.384674,-91.060394
4803000000,-62.099464,-100.45142
4806000000,-61.791039,-111.70436
4809000000,-62.070263,-122.1996
4812000000,-61.664799,-129.83212
4815000000,-61.52322,-138.09978
4818000000,-61.571575,-150.45683
4821000000,-61.315762,-160.34532
4824000000,-61.436295,-173.36481
4827000000,-61.602734,176.0143
4830000000,-61.658588,165.60353
4833000000,-61.802197,156.46336
4836000000,-61.917667,146.30763
4839000000,-61.996025,137.90788
4842000000,-61.816765,125.2506
4845000000,-62.343418,116.56192
4848000000,-63.048717,109.39478
4851000000,-62.337772,101.56672
4854000000,-62.576389,90.112335
4857000000,-62.431519,79.767052
4860000000,-62.292595,66.547859
4863000000,-62.795757,58.776566
4866000000,-62.426247,46.86097
4869000000,-62.958614,42.219231
4872000000,-63.017303,32.203892
4875000000,-63.127903,23.144953
4878000000,-62.941471,16.904596
4881000000,-62.187332,7.8654718
4884000000,-62.020493,-3.993367
4887000000,-61.897964,-14.822981
4890000000,-61.956898,-27.6528
4893000000,-62.600327,-39.471054
4896000000,-63.157368,-47.939369
4899000000,-63.225235,-56.416435
4902000000,-63.131798,-66.659386
4905000000,-62.997299,-72.819923
4908000000,-62.583523,-83.102554
4911000000,-63.048103,-91.635956
4914000000,-62.294853,-102.31954
4917000000,-62.143044,-112.86242
4920000000,-62.556011,-124.08845
4923000000,-63.058113,-129.08568
4926000000,-63.033188,-143.90865
4929000000,-62.751831,-150.95424
4932000000,-63.057514,-159.34773
4935000000,-62.805752,-167.69199
4938000000,-62.923759,-174.79581
4941000000,-62.361755,171.37784
4944000000,-62.159119,164.87364
4947000000,-62.392174,151.15016
4950000000,-62.672119,140.88786
4953000000,-62.718227,128.17915
4956000000,-63.33469,120.43085
4959000000,-63.072998,112.56441
4962000000,-63.299652,104.1291
4965000000,-63.719467,93.704994
4968000000,-62.99585,88.700233
4971000000,-63.163357,78.046059
4974000000,-62.808395,67.162537
4977000000,-62.81535,57.183277
4980000000,-62.435234,51.194431
4983000000,-62.74379,39.539085
4986000000,-62.657009,26.449444
4989000000,-63.230442,16.870691
4992000000,-62.456829,12.694325
4995000000,-62.980083,1.2098712
4998000000,-62.36311,-7.0126281
5001000000,-62.372936,-14.958099
5004000000,-61.823647,-26.033312
5007000000,-61.60638,-39.929264
5010000000,-61.788097,-49.953804
5013000000,-61.798195,-59.937382
5016000000,-62.863091,-70.612923
5019000000,-62.461571,-77.868362
5022000000,-62.521297,-87.040382
5025000000,-62.855061,-98.222702
5028000000,-61.783073,-105.263
5031000000,-62.492966,-116.75457
5034000000,-62.178291,-128.49107
5037000000,-62.729794,-140.23831
5040000000,-62.810307,-149.87688
5043000000,-62.844639,-161.07988
5046000000,-62.909515,-167.7466
5049000000,-62.396713,-175.85674
5052000000,-63.194614,175.93813
5055000000,-63.176609,165.39973
5058000000,-62.949879,153.24081
5061000000,-62.745663,147.0735
5064000000,-62.598324,138.94867
5067000000,-62.181053,127.36379
5070000000,-62.421871,117.06216
5073000000,-62.348255,104.51714
5076000000,-62.467281,92.771896
5079000000,-62.897137,85.325737
5082000000,-62.877483,81.117752
5085000000,-62.711094,71.124962
5088000000,-62.48074,60.551861
5091000000,-61.872513,51.414165
5094000000,-62.150055,42.217854
5097000000,-61.685066,30.146072
5100000000,-61.35347,16.543425
5103000000,-61.745636,7.4827824
5106000000,-61.781635,-3.1483839
5109000000,-61.738651,-14.887967
5112000000,-62.007347,-21.407106
5115000000,-62.064957,-32.849537
5118000000,-62.226059,-41.134514
5121000000,-62.753696,-50.427715
5124000000,-62.801868,-62.181961
5127000000,-62.248886,-71.563255
5130000000,-62.050976,-82.776123
5133000000,-62.421577,-90.448532
5136000000,-62.185589,-102.30817
5139000000,-62.022568,-110.54463
5142000000,-62.701103,-125.76298
5145000000,-62.853252,-133.63541
5148000000,-62.701344,-138.74918
5151000000,-62.785126,-150.26048
5154000000,-63.00256,-158.41573
5157000000,-63.513462,-165.70525
5160000000,-63.555676,-177.33061
5163000000,-62.57378,173.09853
5166000000,-63.079693,161.43097
5169000000,-62.881596,154.78256
5172000000,-62.871952,144.45668
5175000000,-63.492924,132.43163
5178000000,-62.792931,125.69657
5181000000,-62.667305,115.97133
5184000000,-62.885372,102.21876
5187000000,-63.614838,93.75528
5190000000,-63.4814,81.821304
5193000000,-63.607544,75.711876
5196000000,-63.475494,65.010513
5199000000,-63.965324,55.393482
5202000000,-64.090042,46.799736
5205000000,-63.828579,38.517063
5208000000,-63.283226,33.419014
5211000000,-62.96154,18.809708
5214000000,-62.72974,10.255716
5217000000,-63.076485,-0.90688038
5220000000,-63.84193,-15.558164
5223000000,-63.38192,-21.781208
5226000000,-64.132095,-30.356838
5229000000,-64.308823,-40.965446
5232000000,-63.378319,-46.155815
5235000000,-63.427078,-56.157139
5238000000,-63.655899,-64.316406
5241000000,-63.212585,-73.59304
5244000000,-63.12775,-84.163307
5247000000,-62.785339,-95.220703
5250000000,-62.974766,-103.1247
5253000000,-62.711258,-113.327
5256000000,-62.935371,-126.16074
5259000000,-63.935078,-137.05931
5262000000,-63.723335,-144.05811
5265000000,-64.04821,-150.5878
5268000000,-63.708351,-151.73236
5271000000,-62.95364,-167.10802
5274000000,-62.365219,-174.34093
5277000000,-62.105373,171.64195
5280000000,-62.626469,160.86186
5283000000,-62.442619,149.92938
5286000000,-62.515228,140.11313
5289000000,-62.643219,130.81841
5292000000,-62.575745,122.7589
5295000000,-62.946255,108.05325
5298000000,-62.656403,98.480667
5301000000,-62.722893,93.790359
5304000000,-63.29911,82.161613
5307000000,-62.721493,71.888321
5310000000,-62.920498,63.937176
5313000000,-63.70853,55.276978
5316000000,-62.410278,40.768673
5319000000,-62.685322,32.467499
5322000000,-62.65036,21.001463
5325000000,-62.833004,11.213395
5328000000,-62.929413,4.5748377
5331000000,-62.715485,-6.9184432
5334000000,-62.919056,-21.45307
5337000000,-62.262344,-28.617432
5340000000,-62.501434,-36.055252
5343000000,-63.184612,-46.411625
5346000000,-63.376602,-59.331852
5349000000,-63.908089,-67.036781
5352000000,-63.459858,-73.22052
5355000000,-63.631008,-79.891937
5358000000,-63.066124,-90.060257
5361000000,-62.835114,-97.711418
5364000000,-62.717003,-107.86164
5367000000,-62.538761,-118.48386
5370000000,-62.15617,-131.44519
5373000000,-61.882481,-140.46463
5376000000,-62.341705,-151.03972
5379000000,-61.941788,-162.98184
5382000000,-62.330269,-174.429
5385000000,-62.466438,178.62451
5388000000,-62.28973,168.4926
5391000000,-62.368752,160.00726
5394000000,-62.147537,150.56003
5397000000,-62.506016,140.19333
5400000000,-62.990528,133.15414
5403000000,-61.746254,120.61349
5406000000,-62.120304,108.54539
5409000000,-62.331642,97.954437
5412000000,-62.194923,87.368843
5415000000,-62.843212,76.749008
5418000000,-62.630463,67.262428
5421000000,-63.026138,59.645401
5424000000,-62.477619,52.836395
5427000000,-63.071339,42.366516
5430000000,-63.340023,29.395571
5433000000,-63.626839,21.387054
5436000000,-62.926567,13.400311
5439000000,-62.7393,1.557063
5442000000,-63.344112,-6.3450532
5445000000,-62.711689,-16.712664
5448000000,-62.765755,-25.730894
5451000000,-62.724182,-36.715137
5454000000,-62.902706,-45.893826
5457000000,-62.881615,-56.148624
5460000000,-62.440025,-67.083565
5463000000,-62.62262,-79.491432
5466000000,-62.797699,-90.170158
5469000000,-62.494297,-98.91156
5472000000,-63.272175,-113.87382
5475000000,-62.974781,-121.12807
5478000000,-63.736607,-123.56368
5481000000,-63.051552,-132.23656
5484000000,-62.928833,-144.11537
5487000000,-62.155235,-155.44368
5490000000,-62.682777,-167.22336
5493000000,-62.657162,-178.42357
5496000000,-62.678272,170.28703
5499000000,-63.30233,159.96313
5502000000,-62.474987,156.60481
5505000000,-63.284695,138.56235
5508000000,-63.023003,133.75941
5511000000,-63.891796,123.64898
5514000000,-63.815113,111.86806
5517000000,-63.96545,102.59388
5520000000,-64.126457,98.694931
5523000000,-63.775684,86.956924
5526000000,-64.706352,74.915131
5529000000,-63.325699,64.348274
5532000000,-63.999062,51.021633
5535000000,-63.574638,43.450447
5538000000,-64.456978,36.448059
5541000000,-64.751144,25.027996
5544000000,-64.302162,18.57546
5547000000,-64.175629,15.021647
5550000000,-64.41568,5.5814719
5553000000,-64.298233,-10.979533
5556000000,-64.445633,-19.968618
5559000000,-64.170006,-27.081825
5562000000,-65.060692,-35.492592
5565000000,-64.450089,-42.541828
5568000000,-64.364937,-53.77422
5571000000,-64.038147,-65.672249
5574000000,-64.606445,-76.656761
5577000000,-64.345306,-85.860359
5580000000,-64.21228,-94.373306
5583000000,-63.943501,-104.83658
5586000000,-63.602592,-117.73077
5589000000,-63.842686,-123.70411
5592000000,-63.910007,-138.21867
5595000000,-64.674904,-146.6875
5598000000,-64.656036,-156.46411
5601000000,-64.678185,-163.45061
5604000000,-64.457649,-166.88881
5607000000,-64.445862,-179.82315
5610000000,-64.361374,164.42989
5613000000,-64.076408,153.85764
5616000000,-65.381668,144.46768
5619000000,-65.037766,135.6665
5622000000,-64.548912,135.09032
5625000000,-64.442284,124.31538
5628000000,-64.24765,112.12927
5631000000,-64.413719,98.92411
5634000000,-63.95171,81.719017
5637000000,-64.832275,73.618713
5640000000,-64.699081,66.219223
5643000000,-66.241608,58.436893
5646000000,-65.848274,48.82737
5649000000,-65.502457,45.738697
5652000000,-66.307503,33.633568
5655000000,-64.901314,27.64241
5658000000,-66.120361,18.854738
5661000000,-65.160019,7.6390452
5664000000,-64.456123,4.5550308
5667000000,-64.872475,-7.8192606
5670000000,-64.815773,-20.42774
5673000000,-64.91317,-32.240475
5676000000,-65.401245,-46.075939
5679000000,-64.833405,-56.646008
5682000000,-65.218834,-60.952812
5685000000,-65.429001,-67.244576
5688000000,-64.647682,-73.486191
5691000000,-65.547348,-81.2789
5694000000,-65.183937,-95.013535
5697000000,-64.48098,-109.01822
5700000000,-65.065491,-118.97959
5703000000,-64.834091,-128.53616
5706000000,-65.249153,-145.26636
5709000000,-65.39801,-143.48553
5712000000,-65.276642,-149.55287
5715000000,-65.014473,-170.20473
5718000000,-65.326012,177.26923
5721000000,-65.0355,172.41408
5724000000,-65.126266,160.47452
5727000000,-65.561714,152.86749
5730000000,-66.915726,150.96951
5733000000,-65.674034,141.1967
5736000000,-65.773788,128.22801
5739000000,-65.588936,121.02896
5742000000,-65.590149,115.64462
5745000000,-64.424667,103.22941
5748000000,-65.067307,86.333344
5751000000,-64.777657,82.734589
5754000000,-65.395546,75.562073
5757000000,-65.507378,55.231541
5760000000,-66.002312,49.779285
5763000000,-66.319901,37.361107
5766000000,-66.236229,31.113834
5769000000,-65.793869,28.073704
5772000000,-65.43956,18.923672
5775000000,-64.625954,6.3378973
5778000000,-64.626648,2.3604469
5781000000,-64.008415,-16.054436
5784000000,-65.263489,-27.740675
5787000000,-64.687599,-38.22501
5790000000,-65.235992,-40.428791
5793000000,-65.096596,-55.809376
5796000000,-64.920853,-63.675472
5799000000,-65.330788,-69.060417
5802000000,-64.778336,-88.579399
5805000000,-65.123055,-98.185616
5808000000,-64.792709,-105.68547
5811000000,-65.542404,-115.45077
5814000000,-65.705765,-129.18666
5817000000,-65.198105,-135.11356
5820000000,-65.70768,-144.3288
5823000000,-65.944519,-155.66798
5826000000,-66.602699,-157.72937
5829000000,-66.253891,-167.74179
5832000000,-66.637276,-177.01588
5835000000,-65.081314,170.69576
5838000000,-65.645248,158.75531
5841000000,-64.699677,149.02426
5844000000,-65.422386,135.20641
5847000000,-66.094353,122.4528
5850000000,-66.606361,123.54483
5853000000,-66.269753,112.98603
5856000000,-65.332268,103.68062
5859000000,-66.066566,90.76973
5862000000,-66.507301,75.190979
5865000000,-66.329742,70.520653
5868000000,-68.201477,60.952385
5871000000,-66.892136,61.203228
5874000000,-65.733635,49.170605
5877000000,-66.635315,37.450382
5880000000,-65.106117,28.896955
5883000000,-65.42215,13.847761
5886000000,-66.547455,5.6125908
5889000000,-65.817497,-8.130291
5892000000,-66.560318,-16.88224
5895000000,-65.314293,-30.546389
5898000000,-65.935303,-43.583282
5901000000,-65.719788,-43.102993
5904000000,-65.440804,-57.776119
5907000000,-66.053909,-63.322922
5910000000,-67.424919,-79.352821
5913000000,-67.46479,-87.927376
5916000000,-67.556343,-92.646317
5919000000,-67.035103,-100.72086
5922000000,-66.815086,-113.82581
5925000000,-66.862938,-115.65872
5928000000,-67.998108,-126.4912
5931000000,-67.528145,-134.51654
5934000000,-66.29995,-152.71349
5937000000,-65.901314,-156.97012
5940000000,-66.930168,-166.44341
5943000000,-67.591537,-177.15404
5946000000,-68.445473,169.89403
5949000000,-67.294647,161.47726
5952000000,-68.904617,157.07387
5955000000,-67.85762,152.29077
5958000000,-68.543663,138.79251
5961000000,-68.002007,136.78246
5964000000,-67.575966,121.30207
5967000000,-68.463898,114.93538
5970000000,-67.012199,101.89061
5973000000,-66.509727,98.958611
5976000000,-66.498581,86.484734
5979000000,-66.667793,78.397209
5982000000,-68.31926,56.221748
5985000000,-67.164986,56.865208
5988000000,-67.631653,42.525143
5991000000,-67.617104,35.714573
5994000000,-66.770264,24.49308
5997000000,-67.466759,12.324228
6000000000,-67.875267,9.3306875
END

