!CSV A.01.01
!Keysight Technologies,N5227B,US58420762,A.13.80.08
!Date: Tuesday, November 21, 2023 09:43:03
!Source: Standard

BEGIN CH1_DATA
Time(s),S21(DB),S21(DEG)
5e-009,-119.79419,123.33858
5.015e-009,-120.06258,137.84355
5.03e-009,-120.14706,151.17346
5.045e-009,-119.97263,163.93536
5.06e-009,-119.52383,176.95453
5.075e-009,-118.85294,-169.04428
5.09e-009,-118.04897,-153.67456
5.105e-009,-117.19848,-136.88071
5.12e-009,-116.36569,-118.80544
5.135e-009,-115.59032,-99.656349
5.15e-009,-114.89462,-79.638504
5.165e-009,-114.28971,-58.925079
5.18e-009,-113.78042,-37.655853
5.195e-009,-113.36841,-15.940475
5.21e-009,-113.05385,6.1416459
5.225e-009,-112.83623,28.528593
5.24e-009,-112.71597,51.174461
5.255e-009,-112.69359,74.045982
5.27e-009,-112.77032,97.120575
5.285e-009,-112.94905,120.38785
5.3e-009,-113.23365,143.84102
5.315e-009,-113.62956,167.48886
5.33e-009,-114.14467,-168.65126
5.345e-009,-114.78884,-144.54271
5.36e-009,-115.57616,-120.12801
5.375e-009,-116.52425,-95.310898
5.39e-009,-117.65657,-69.933563
5.405e-009,-119.0034,-43.733978
5.42e-009,-120.60076,-16.254364
5.435e-009,-122.48048,13.334287
5.45e-009,-124.62349,46.551495
5.465e-009,-126.79184,85.786087
5.48e-009,-128.20837,132.2997
5.495e-009,-128.00453,-179.59309
5.51e-009,-126.66019,-137.97783
5.525e-009,-125.13799,-103.54567
5.54e-009,-123.84354,-73.868591
5.555e-009,-122.84876,-47.13319
5.57e-009,-122.13305,-22.365849
5.585e-009,-121.65926,0.91513437
5.6e-009,-121.3916,22.925779
5.615e-009,-121.29434,43.716896
5.63e-009,-121.32883,63.248985
5.645e-009,-121.44661,81.439514
5.66e-009,-121.58486,98.237106
5.675e-009,-121.66694,113.71266
5.69e-009,-121.61398,128.17101
5.705e-009,-121.37077,142.16432
5.72e-009,-120.93128,156.37027
5.735e-009,-120.33923,171.3577
5.75e-009,-119.6661,-172.5585
5.765e-009,-118.98148,-155.31648
5.78e-009,-118.34155,-137.01282
5.795e-009,-117.78449,-117.80913
5.81e-009,-117.33553,-97.87645
5.825e-009,-117.0117,-77.372131
5.84e-009,-116.82685,-56.431137
5.855e-009,-116.79343,-35.168568
5.87e-009,-116.92661,-13.690893
5.885e-009,-117.24651,7.8992677
5.9e-009,-117.78204,29.488245
5.915e-009,-118.57625,50.923016
5.93e-009,-119.69849,71.969009
5.945e-009,-121.26245,92.17627
5.96e-009,-123.47482,110.51058
5.975e-009,-126.72192,123.92452
5.99e-009,-131.33542,120.33102
6.005e-009,-131.98285,81.897514
6.02e-009,-126.8399,71.698463
6.035e-009,-122.8412,83.493362
6.05e-009,-119.97562,101.51648
6.065e-009,-117.81188,121.87126
6.08e-009,-116.11524,143.32204
6.095e-009,-114.75713,165.36519
6.11e-009,-113.66148,-172.24173
6.125e-009,-112.77989,-149.63306
6.14e-009,-112.08076,-126.89552
6.155e-009,-111.54333,-104.0844
6.17e-009,-111.15325,-81.245628
6.185e-009,-110.90158,-58.414368
6.2e-009,-110.78323,-35.630222
6.215e-009,-110.7961,-12.930578
6.23e-009,-110.94119,9.6396685
6.245e-009,-111.22238,32.022823
6.26e-009,-111.64616,54.143284
6.275e-009,-112.2224,75.896408
6.29e-009,-112.96358,97.127678
6.305e-009,-113.88528,117.6096
6.32e-009,-115.00171,136.98195
6.335e-009,-116.31783,154.67642
6.35e-009,-117.8009,169.81374
6.365e-009,-119.31236,-178.79063
6.38e-009,-120.5009,-171.91516
6.395e-009,-120.87302,-167.97359
6.41e-009,-120.30024,-162.65834
6.425e-009,-119.20564,-153.00032
6.44e-009,-118.04055,-139.06433
6.455e-009,-117.02788,-122.01923
6.47e-009,-116.24293,-102.87869
6.485e-009,-115.70336,-82.309837
6.5e-009,-115.412,-60.718613
6.515e-009,-115.37359,-38.336872
6.53e-009,-115.60262,-15.277248
6.545e-009,-116.12907,8.4489355
6.56e-009,-117.00829,32.964062
6.575e-009,-118.33791,58.611355
6.59e-009,-120.29589,86.28241
6.605e-009,-123.20922,118.60894
6.62e-009,-127.38862,165.34183
6.635e-009,-128.91068,-114.80689
6.65e-009,-124.19083,-53.354359
6.665e-009,-120.07971,-16.355444
6.68e-009,-117.11477,13.287074
6.695e-009,-114.89047,40.242683
6.71e-009,-113.16599,65.959778
6.725e-009,-111.80795,91.008949
6.74e-009,-110.73766,115.65205
6.755e-009,-109.90718,140.02348
6.77e-009,-109.28646,164.19334
6.785e-009,-108.85729,-171.80147
6.8e-009,-108.60993,-147.94696
6.815e-009,-108.54178,-124.24643
6.83e-009,-108.65642,-100.71957
6.845e-009,-108.96444,-77.406288
6.86e-009,-109.48464,-54.378647
6.875e-009,-110.24709,-31.757467
6.89e-009,-111.29787,-9.7597675
6.905e-009,-112.70818,11.205125
6.92e-009,-114.58616,30.282406
6.935e-009,-117.07684,45.465565
6.95e-009,-120.1777,51.596996
6.965e-009,-122.39807,40.220379
6.98e-009,-120.79015,26.213736
6.995e-009,-117.75391,30.03895
7.01e-009,-115.27673,44.42083
7.025e-009,-113.47667,63.383671
7.04e-009,-112.22837,84.609055
7.055e-009,-111.44294,107.16965
7.07e-009,-111.08073,130.69037
7.085e-009,-111.14745,155.0864
7.1e-009,-111.69872,-179.47301
7.115e-009,-112.86552,-152.39183
7.13e-009,-114.91518,-121.91098
7.145e-009,-118.29073,-81.777405
7.16e-009,-121.44962,-10.577235
7.175e-009,-117.24859,64.604347
7.19e-009,-112.17693,106.80161
7.205e-009,-108.44209,138.25722
7.22e-009,-105.59033,166.205
7.235e-009,-103.31821,-167.32739
7.25e-009,-101.46186,-141.59457
7.265e-009,-99.928299,-116.26039
7.28e-009,-98.662674,-91.148766
7.295e-009,-97.632843,-66.153137
7.31e-009,-96.822067,-41.199078
7.325e-009,-96.225723,-16.223221
7.34e-009,-95.850739,8.8400669
7.355e-009,-95.717339,34.075382
7.37e-009,-95.864052,59.611332
7.385e-009,-96.358513,85.674866
7.4e-009,-97.320496,112.7278
7.415e-009,-98.973495,141.89452
7.43e-009,-101.74769,176.69427
7.445e-009,-105.87199,-128.17258
7.46e-009,-104.65669,-40.22908
7.475e-009,-98.676811,12.843356
7.49e-009,-94.095543,47.076851
7.505e-009,-90.587914,76.008446
7.52e-009,-87.731674,102.9035
7.535e-009,-85.304092,128.82027
7.55e-009,-83.181015,154.19481
7.565e-009,-81.287224,179.23805
7.58e-009,-79.573921,-155.93584
7.595e-009,-78.007652,-131.25983
7.61e-009,-76.564461,-106.6919
7.625e-009,-75.226578,-82.204453
7.64e-009,-73.980446,-57.778557
7.655e-009,-72.815445,-33.400833
7.67e-009,-71.723114,-9.0615196
7.685e-009,-70.696571,15.246675
7.7e-009,-69.730141,39.529297
7.715e-009,-68.819107,63.790649
7.73e-009,-67.959465,88.034142
7.745e-009,-67.147804,112.26248
7.76e-009,-66.381195,136.47786
7.775e-009,-65.657104,160.68213
7.79e-009,-64.97332,-175.12325
7.805e-009,-64.327904,-150.93695
7.82e-009,-63.719143,-126.75792
7.835e-009,-63.145527,-102.58524
7.85e-009,-62.605709,-78.418068
7.865e-009,-62.098499,-54.255707
7.88e-009,-61.622826,-30.097515
7.895e-009,-61.177731,-5.9429131
7.91e-009,-60.762363,18.208635
7.925e-009,-60.375954,42.357624
7.94e-009,-60.017818,66.504532
7.955e-009,-59.687336,90.649796
7.97e-009,-59.383961,114.79385
7.985e-009,-59.107208,138.93715
8e-009,-58.856636,163.08011
8.015e-009,-58.631859,-172.77682
8.03e-009,-58.432549,-148.63318
8.045e-009,-58.258408,-124.4885
8.06e-009,-58.109184,-100.34227
8.075e-009,-57.984669,-76.193954
8.09e-009,-57.884689,-52.042999
8.105e-009,-57.809109,-27.888777
8.12e-009,-57.757828,-3.7306123
8.135e-009,-57.730774,20.432224
8.15e-009,-57.727917,44.600548
8.165e-009,-57.74926,68.775246
8.18e-009,-57.79483,92.957306
8.195e-009,-57.864697,117.14783
8.21e-009,-57.958958,141.34805
8.225e-009,-58.077747,165.55934
8.24e-009,-58.22123,-170.21675
8.255e-009,-58.389603,-145.9785
8.27e-009,-58.583099,-121.72389
8.285e-009,-58.801998,-97.450722
8.3e-009,-59.0466,-73.156464
8.315e-009,-59.317245,-48.838226
8.33e-009,-59.614319,-24.492704
8.345e-009,-59.938229,-0.11614071
8.36e-009,-60.289436,24.295811
8.375e-009,-60.668423,48.748112
8.39e-009,-61.07571,73.246536
8.405e-009,-61.511841,97.797707
8.42e-009,-61.977379,122.40937
8.435e-009,-62.4729,147.09048
8.45e-009,-62.99897,171.8515
8.465e-009,-63.556118,-163.29539
8.48e-009,-64.144806,-138.33595
8.495e-009,-64.765373,-113.25349
8.51e-009,-65.417984,-88.028587
8.525e-009,-66.102493,-62.638557
8.54e-009,-66.818329,-37.057133
8.555e-009,-67.564308,-11.254107
8.57e-009,-68.338371,14.804789
8.585e-009,-69.137245,41.157585
8.6e-009,-69.956047,67.845062
8.615e-009,-70.787766,94.908516
8.63e-009,-71.622833,122.3858
8.645e-009,-72.4487,150.30502
8.66e-009,-73.249855,178.67561
8.675e-009,-74.008461,-152.52234
8.69e-009,-74.705933,-123.34807
8.705e-009,-75.325546,-93.905304
8.72e-009,-75.85556,-64.337914
8.735e-009,-76.291801,-34.813847
8.75e-009,-76.638763,-5.5012293
8.765e-009,-76.908554,23.455736
8.78e-009,-77.118256,51.95274
8.795e-009,-77.28685,79.929916
8.81e-009,-77.43261,107.3667
8.825e-009,-77.571495,134.2719
8.84e-009,-77.716515,160.67297
8.855e-009,-77.877762,-173.39282
8.87e-009,-78.062744,-147.88478
8.885e-009,-78.276924,-122.76273
8.9e-009,-78.524193,-97.98925
8.915e-009,-78.807312,-73.530617
8.93e-009,-79.128235,-49.357178
8.945e-009,-79.488434,-25.443214
8.96e-009,-79.889076,-1.7666268
8.975e-009,-80.33123,21.691483
8.99e-009,-80.815987,44.947052
9.005e-009,-81.344604,68.013443
9.02e-009,-81.918617,90.901634
9.035e-009,-82.53997,113.62031
9.05e-009,-83.211128,136.1758
9.065e-009,-83.935265,158.57184
9.08e-009,-84.716438,-179.19081
9.095e-009,-85.559822,-157.11522
9.11e-009,-86.472084,-135.20963
9.125e-009,-87.461807,-113.48952
9.14e-009,-88.540085,-91.980927
9.155e-009,-89.721558,-70.726219
9.17e-009,-91.025627,-49.793686
9.185e-009,-92.478561,-29.295555
9.2e-009,-94.116493,-9.4223719
9.215e-009,-95.989525,9.486145
9.23e-009,-98.165443,26.781139
9.245e-009,-100.72092,41.125999
9.26e-009,-103.64713,49.636734
9.275e-009,-106.35183,47.354618
9.29e-009,-106.96917,36.003258
9.305e-009,-105.26862,32.069305
9.32e-009,-103.17177,39.532585
9.335e-009,-101.42904,53.428211
9.35e-009,-100.0861,70.575378
9.365e-009,-99.07209,89.492058
9.38e-009,-98.320778,109.4643
9.395e-009,-97.78392,130.12012
9.41e-009,-97.428261,151.25137
9.425e-009,-97.23127,172.73567
9.44e-009,-97.178246,-165.50078
9.455e-009,-97.260361,-143.5015
9.47e-009,-97.473663,-121.28934
9.485e-009,-97.818428,-98.870041
9.5e-009,-98.299301,-76.232635
9.515e-009,-98.925682,-53.346695
9.53e-009,-99.712944,-30.154255
9.545e-009,-100.68436,-6.5538659
9.56e-009,-101.87436,17.632746
9.575e-009,-103.33353,42.729496
9.59e-009,-105.13486,69.367371
9.605e-009,-107.37106,98.885872
9.62e-009,-110.07256,134.33781
9.635e-009,-112.66164,-178.39384
9.65e-009,-112.94667,-120.4316
9.665e-009,-110.64846,-71.373627
9.68e-009,-108.04657,-34.95763
9.695e-009,-105.88631,-5.1572289
9.71e-009,-104.16312,21.413652
9.725e-009,-102.78101,46.237988
9.74e-009,-101.66044,70.006012
9.755e-009,-100.74438,93.068542
9.77e-009,-99.992203,115.61827
9.785e-009,-99.374176,137.76564
9.8e-009,-98.867828,159.57677
9.815e-009,-98.455627,-178.90775
9.83e-009,-98.123268,-157.66298
9.845e-009,-97.858856,-136.67352
9.86e-009,-97.652008,-115.92931
9.875e-009,-97.493416,-95.423363
9.89e-009,-97.374542,-75.149666
9.905e-009,-97.287415,-55.101097
9.92e-009,-97.22451,-35.26894
9.935e-009,-97.178726,-15.641299
9.95e-009,-97.143333,3.7975314
9.965e-009,-97.112228,23.067272
9.98e-009,-97.079956,42.191929
9.995e-009,-97.041756,61.19931
1.001e-008,-96.993919,80.120255
1.0025e-008,-96.933601,98.987328
1.004e-008,-96.858994,117.83313
1.0055e-008,-96.769234,136.68991
1.007e-008,-96.664337,155.58768
1.0085e-008,-96.544945,174.55325
1.01e-008,-96.412277,-166.38988
1.0115e-008,-96.267883,-147.22177
1.013e-008,-96.113533,-127.9267
1.0145e-008,-95.951057,-108.49121
1.016e-008,-95.782295,-88.905617
1.0175e-008,-95.609039,-69.161751
1.019e-008,-95.433037,-49.25375
1.0205e-008,-95.255867,-29.177046
1.022e-008,-95.079079,-8.928668
1.0235e-008,-94.904129,11.493956
1.025e-008,-94.732452,32.09153
1.0265e-008,-94.565369,52.864712
1.028e-008,-94.404205,73.812622
1.0295e-008,-94.250214,94.93383
1.031e-008,-94.104599,116.2256
1.0325e-008,-93.968529,137.6846
1.034e-008,-93.843117,159.30638
1.0355e-008,-93.729431,-178.91447
1.037e-008,-93.628433,-156.98438
1.0385e-008,-93.541092,-134.91039
1.04e-008,-93.468262,-112.70084
1.0415e-008,-93.410744,-90.364563
1.043e-008,-93.369316,-67.911469
1.0445e-008,-93.344704,-45.352165
1.046e-008,-93.337555,-22.698092
1.0475e-008,-93.348541,0.038451437
1.049e-008,-93.378273,22.844315
1.0505e-008,-93.427361,45.705418
1.052e-008,-93.496399,68.606827
1.0535e-008,-93.585968,91.532387
1.055e-008,-93.696609,114.4649
1.0565e-008,-93.828888,137.38564
1.058e-008,-93.983269,160.27458
1.0595e-008,-94.160164,-176.8904
1.061e-008,-94.359825,-154.13316
1.0625e-008,-94.582336,-131.48022
1.064e-008,-94.827438,-108.96048
1.0655e-008,-95.094482,-86.606033
1.067e-008,-95.382133,-64.451897
1.0685e-008,-95.68821,-42.53643
1.07e-008,-96.009354,-20.900383
1.0715e-008,-96.340637,0.41393059
1.073e-008,-96.675125,21.365257
1.0745e-008,-97.003517,41.916832
1.076e-008,-97.313919,62.0429
1.0775e-008,-97.591812,81.736198
1.079e-008,-97.820847,101.01759
1.0805e-008,-97.984329,119.94315
1.082e-008,-98.067459,138.60863
1.0835e-008,-98.060005,157.14413
1.085e-008,-97.958374,175.69978
1.0865e-008,-97.76651,-165.57404
1.088e-008,-97.494965,-146.54826
1.0895e-008,-97.158638,-127.12739
1.091e-008,-96.774284,-107.25474
1.0925e-008,-96.35807,-86.908447
1.094e-008,-95.924301,-66.093674
1.0955e-008,-95.48465,-44.833294
1.097e-008,-95.048088,-23.159515
1.0985e-008,-94.621193,-1.1091409
1.1e-008,-94.208527,21.280739
1.1015e-008,-93.813004,43.975174
1.103e-008,-93.436378,66.941986
1.1045e-008,-93.079407,90.152512
1.106e-008,-92.742188,113.58121
1.1075e-008,-92.424347,137.20564
1.109e-008,-92.125122,161.00597
1.1105e-008,-91.843521,-175.03534
1.112e-008,-91.578369,-150.93414
1.1135e-008,-91.328407,-126.70459
1.115e-008,-91.092331,-102.35992
1.1165e-008,-90.868813,-77.91227
1.118e-008,-90.656555,-53.373276
1.1195e-008,-90.454338,-28.754124
1.121e-008,-90.260979,-4.0654583
1.1225e-008,-90.075439,20.682304
1.124e-008,-89.896805,45.478985
1.1255e-008,-89.724258,70.314766
1.127e-008,-89.557175,95.179947
1.1285e-008,-89.395065,120.06537
1.13e-008,-89.237587,144.96225
1.1315e-008,-89.084564,169.86232
1.133e-008,-88.935966,-165.24226
1.1345e-008,-88.791901,-140.35838
1.136e-008,-88.652596,-115.49246
1.1375e-008,-88.518372,-90.650032
1.139e-008,-88.389671,-65.835945
1.1405e-008,-88.266983,-41.054192
1.142e-008,-88.150864,-16.307924
1.1435e-008,-88.041901,8.4003267
1.145e-008,-87.940712,33.06881
1.1465e-008,-87.847923,57.696453
1.148e-008,-87.764145,82.282784
1.1495e-008,-87.689987,106.82777
1.151e-008,-87.62603,131.33203
1.1525e-008,-87.57283,155.79636
1.154e-008,-87.530907,-179.77779
1.1555e-008,-87.500732,-155.38905
1.157e-008,-87.482742,-131.03555
1.1585e-008,-87.477318,-106.71535
1.16e-008,-87.484802,-82.426414
1.1615e-008,-87.505501,-58.166492
1.163e-008,-87.539642,-33.933392
1.1645e-008,-87.58741,-9.7248735
1.166e-008,-87.648972,14.461369
1.1675e-008,-87.724388,38.627472
1.169e-008,-87.813698,62.775715
1.1705e-008,-87.916878,86.908173
1.172e-008,-88.033844,111.02702
1.1735e-008,-88.164482,135.134
1.175e-008,-88.308578,159.23117
1.1765e-008,-88.465881,-176.67981
1.178e-008,-88.636063,-152.59746
1.1795e-008,-88.818748,-128.52008
1.181e-008,-89.013481,-104.44649
1.1825e-008,-89.219734,-80.375717
1.184e-008,-89.436913,-56.306725
1.1855e-008,-89.664368,-32.238953
1.187e-008,-89.901367,-8.1719189
1.1885e-008,-90.147072,15.894213
1.19e-008,-90.400658,39.959511
1.1915e-008,-90.661133,64.023239
1.193e-008,-90.927528,88.08429
1.1945e-008,-91.198761,112.1414
1.196e-008,-91.473747,136.1927
1.1975e-008,-91.751305,160.23595
1.199e-008,-92.030281,-175.73192
1.2005e-008,-92.309448,-151.71402
1.202e-008,-92.587662,-127.714
1.2035e-008,-92.86367,-103.73628
1.205e-008,-93.136345,-79.785469
1.2065e-008,-93.404533,-55.866272
1.208e-008,-93.667168,-31.984236
1.2095e-008,-93.923248,-8.1442261
1.211e-008,-94.171837,15.64788
1.2125e-008,-94.412018,39.386955
1.214e-008,-94.642998,63.067802
1.2155e-008,-94.864067,86.685822
1.217e-008,-95.074608,110.23665
1.2185e-008,-95.274002,133.71661
1.22e-008,-95.461716,157.12291
1.2215e-008,-95.637245,-179.54649
1.223e-008,-95.800163,-156.29245
1.2245e-008,-95.950012,-133.11479
1.226e-008,-96.086411,-110.01191
1.2275e-008,-96.208916,-86.981583
1.229e-008,-96.317146,-64.019333
1.2305e-008,-96.410767,-41.12011
1.232e-008,-96.489449,-18.277302
1.2335e-008,-96.552841,4.517262
1.235e-008,-96.6008,27.272404
1.2365e-008,-96.633141,49.998653
1.238e-008,-96.649864,72.706856
1.2395e-008,-96.651062,95.408485
1.241e-008,-96.636986,118.11585
1.2425e-008,-96.608017,140.84119
1.244e-008,-96.56472,163.59628
1.2455e-008,-96.507813,-173.60725
1.247e-008,-96.438156,-150.75858
1.2485e-008,-96.356766,-127.84792
1.25e-008,-96.264725,-104.86671
1.2515e-008,-96.163269,-81.807556
1.253e-008,-96.053665,-58.664707
1.2545e-008,-95.937225,-35.433647
1.256e-008,-95.8153,-12.111554
1.2575e-008,-95.689224,11.303255
1.259e-008,-95.560341,34.810665
1.2605e-008,-95.429955,58.409908
1.262e-008,-95.299339,82.098648
1.2635e-008,-95.169731,105.874
1.265e-008,-95.04232,129.73193
1.2665e-008,-94.918289,153.66792
1.268e-008,-94.798714,177.67676
1.2695e-008,-94.684738,-158.24678
1.271e-008,-94.57737,-134.10863
1.2725e-008,-94.477661,-109.91447
1.274e-008,-94.38662,-85.670311
1.2755e-008,-94.305229,-61.381901
1.277e-008,-94.234459,-37.055054
1.2785e-008,-94.175262,-12.695378
1.28e-008,-94.128586,11.691901
1.2815e-008,-94.095375,36.101704
1.283e-008,-94.076508,60.529301
1.2845e-008,-94.072945,84.970215
1.286e-008,-94.085541,109.42012
1.2875e-008,-94.115204,133.8754
1.289e-008,-94.162811,158.3324
1.2905e-008,-94.229233,-177.21219
1.292e-008,-94.3153,-152.76137
1.2935e-008,-94.421913,-128.31805
1.295e-008,-94.549873,-103.88489
1.2965e-008,-94.700081,-79.464233
1.298e-008,-94.873367,-55.058701
1.2995e-008,-95.07058,-30.670698
1.301e-008,-95.292587,-6.3024459
1.3025e-008,-95.540306,18.043472
1.304e-008,-95.814613,42.364452
1.3055e-008,-96.116455,66.657509
1.307e-008,-96.446831,90.919792
1.3085e-008,-96.806786,115.1474
1.31e-008,-97.19738,139.33603
1.3115e-008,-97.619835,163.48077
1.313e-008,-98.075447,-172.42426
1.3145e-008,-98.56562,-148.38658
1.316e-008,-99.091957,-124.4147
1.3175e-008,-99.656181,-100.5201
1.319e-008,-100.26036,-76.715805
1.3205e-008,-100.90677,-53.019714
1.322e-008,-101.59801,-29.453129
1.3235e-008,-102.33718,-6.0441051
1.325e-008,-103.12778,17.170906
1.3265e-008,-103.9738,40.144009
1.328e-008,-104.87981,62.811924
1.3295e-008,-105.85056,85.08831
1.331e-008,-106.89088,106.85548
1.3325e-008,-108.00405,127.95
1.334e-008,-109.18953,148.14438
1.3355e-008,-110.43694,167.12575
1.337e-008,-111.71505,-175.51546
1.3385e-008,-112.95178,-160.24327
1.34e-008,-114.01155,-147.37886
1.3415e-008,-114.70097,-136.66974
1.343e-008,-114.85626,-126.91157
1.3445e-008,-114.47283,-116.35199
1.346e-008,-113.70789,-103.75705
1.3475e-008,-112.75285,-88.846214
1.349e-008,-111.74247,-71.929649
1.3505e-008,-110.74802,-53.468315
1.352e-008,-109.79938,-33.873165
1.3535e-008,-108.90514,-13.456617
1.355e-008,-108.06435,7.5552235
1.3565e-008,-107.27243,29.001667
1.358e-008,-106.52361,50.768494
1.3595e-008,-105.81247,72.774544
1.361e-008,-105.13419,94.961639
1.3625e-008,-104.48476,117.28822
1.364e-008,-103.86103,139.72365
1.3655e-008,-103.26057,162.24657
1.367e-008,-102.68157,-175.15901
1.3685e-008,-102.12281,-152.50433
1.37e-008,-101.58343,-129.79752
1.3715e-008,-101.06297,-107.04475
1.373e-008,-100.56123,-84.250465
1.3745e-008,-100.07817,-61.417923
1.376e-008,-99.613937,-38.549789
1.3775e-008,-99.168732,-15.648367
1.379e-008,-98.742874,7.2846828
1.3805e-008,-98.336632,30.247442
1.382e-008,-97.95034,53.238525
1.3835e-008,-97.584244,76.256554
1.385e-008,-97.238632,99.30011
1.3865e-008,-96.913719,122.36807
1.388e-008,-96.609695,145.45905
1.3895e-008,-96.326675,168.57195
1.391e-008,-96.064735,-168.29393
1.3925e-008,-95.823921,-145.13968
1.394e-008,-95.604195,-121.96595
1.3955e-008,-95.405525,-98.773056
1.397e-008,-95.227745,-75.561485
1.3985e-008,-95.070763,-52.331249
1.4e-008,-94.934326,-29.082222
1.4015e-008,-94.818222,-5.8138828
1.403e-008,-94.722168,17.474304
1.4045e-008,-94.645859,40.783428
1.406e-008,-94.588928,64.11483
1.4075e-008,-94.550987,87.469948
1.409e-008,-94.531631,110.85088
1.4105e-008,-94.53038,134.25987
1.412e-008,-94.546761,157.69968
1.4135e-008,-94.580208,-178.82683
1.415e-008,-94.630188,-155.31619
1.4165e-008,-94.696068,-131.76474
1.418e-008,-94.777191,-108.16826
1.4195e-008,-94.872879,-84.522682
1.421e-008,-94.982361,-60.82309
1.4225e-008,-95.104828,-37.064789
1.424e-008,-95.239441,-13.242573
1.4255e-008,-95.385254,10.64844
1.427e-008,-95.54129,34.613506
1.4285e-008,-95.706474,58.657372
1.43e-008,-95.879677,82.784767
1.4315e-008,-96.059685,107
1.433e-008,-96.245232,131.30646
1.4345e-008,-96.434959,155.70694
1.436e-008,-96.627502,-179.79695
1.4375e-008,-96.821434,-155.20456
1.439e-008,-97.015343,-130.51711
1.4405e-008,-97.207809,-105.73707
1.442e-008,-97.39756,-80.868759
1.4435e-008,-97.583366,-55.918392
1.445e-008,-97.764221,-30.893984
1.4465e-008,-97.939293,-5.8048697
1.448e-008,-98.10807,19.337502
1.4495e-008,-98.270294,44.521057
1.451e-008,-98.426132,69.732399
1.4525e-008,-98.576012,94.958138
1.454e-008,-98.720779,120.18436
1.4555e-008,-98.861679,145.39786
1.457e-008,-99.000175,170.58606
1.4585e-008,-99.138062,-164.26259
1.46e-008,-99.277412,-139.15826
1.4615e-008,-99.420441,-114.1097
1.463e-008,-99.569511,-89.124413
1.4645e-008,-99.727112,-64.208168
1.466e-008,-99.895767,-39.365608
1.4675e-008,-100.07811,-14.600207
1.469e-008,-100.27673,10.085329
1.4705e-008,-100.4943,34.689461
1.472e-008,-100.73349,59.210533
1.4735e-008,-100.99705,83.647446
1.475e-008,-101.2878,107.99886
1.4765e-008,-101.60873,132.26306
1.478e-008,-101.96297,156.4375
1.4795e-008,-102.35394,-179.48166
1.481e-008,-102.78536,-155.50032
1.4825e-008,-103.26159,-131.62611
1.484e-008,-103.78741,-107.8708
1.4855e-008,-104.36853,-84.250603
1.487e-008,-105.01176,-60.788998
1.4885e-008,-105.72523,-37.51947
1.49e-008,-106.51904,-14.489091
1.4915e-008,-107.40556,8.2316322
1.493e-008,-108.4003,30.537312
1.4945e-008,-109.52235,52.265411
1.496e-008,-110.79491,73.157806
1.4975e-008,-112.24181,92.785919
1.499e-008,-113.87757,110.42493
1.5005e-008,-115.66589,124.85844
1.502e-008,-117.40405,134.3654
1.5035e-008,-118.5357,138.07878
1.505e-008,-118.39902,139.51108
1.5065e-008,-117.141,144.87387
1.508e-008,-115.47742,156.11989
1.5095e-008,-113.84886,171.82602
1.511e-008,-112.39013,-169.62469
1.5125e-008,-111.1141,-149.2859
1.514e-008,-110.00063,-127.78194
1.5155e-008,-109.02451,-105.48338
1.517e-008,-108.16314,-82.618813
1.5185e-008,-107.39767,-59.33485
1.52e-008,-106.71302,-35.728554
1.5215e-008,-106.09703,-11.868449
1.523e-008,-105.53985,12.197809
1.5245e-008,-105.0335,36.434174
1.526e-008,-104.57137,60.813267
1.5275e-008,-104.14814,85.313522
1.529e-008,-103.75928,109.91725
1.5305e-008,-103.40115,134.61009
1.532e-008,-103.07062,159.37996
1.5335e-008,-102.76524,-175.78418
1.535e-008,-102.4829,-150.89134
1.5365e-008,-102.22195,-125.94985
1.538e-008,-101.98108,-100.96629
1.5395e-008,-101.75916,-75.947189
1.541e-008,-101.55547,-50.897652
1.5425e-008,-101.36935,-25.822571
1.544e-008,-101.20039,-0.72519726
1.5455e-008,-101.04836,24.391478
1.547e-008,-100.913,49.5252
1.5485e-008,-100.79427,74.674683
1.55e-008,-100.69213,99.839409
1.5515e-008,-100.60657,125.01899
1.553e-008,-100.53768,150.21468
1.5545e-008,-100.4854,175.42747
1.556e-008,-100.44978,-159.34039
1.5575e-008,-100.43079,-134.08644
1.559e-008,-100.42827,-108.80824
1.5605e-008,-100.44206,-83.501801
1.562e-008,-100.47192,-58.163296
1.5635e-008,-100.5175,-32.788883
1.565e-008,-100.5782,-7.3743086
1.5665e-008,-100.65351,18.085276
1.568e-008,-100.74253,43.593796
1.5695e-008,-100.84438,69.156105
1.571e-008,-100.958,94.775581
1.5725e-008,-101.08203,120.45571
1.574e-008,-101.21497,146.19983
1.5755e-008,-101.35528,172.00854
1.577e-008,-101.50118,-162.1171
1.5785e-008,-101.65065,-136.17761
1.58e-008,-101.80172,-110.17705
1.5815e-008,-101.95236,-84.118484
1.583e-008,-102.10055,-58.010082
1.5845e-008,-102.24426,-31.860275
1.586e-008,-102.38176,-5.6797647
1.5875e-008,-102.51152,20.519339
1.589e-008,-102.63231,46.721184
1.5905e-008,-102.74315,72.911949
1.592e-008,-102.84367,99.075645
1.5935e-008,-102.93389,125.19585
1.595e-008,-103.01418,151.25911
1.5965e-008,-103.08511,177.25197
1.598e-008,-103.14805,-156.83757
1.5995e-008,-103.20421,-131.01772
1.601e-008,-103.25519,-105.29555
1.6025e-008,-103.30275,-79.675117
1.604e-008,-103.34856,-54.157188
1.6055e-008,-103.39445,-28.741007
1.607e-008,-103.44199,-3.4232032
1.6085e-008,-103.4929,21.801405
1.61e-008,-103.54846,46.940403
1.6115e-008,-103.6101,72.002106
1.613e-008,-103.67901,96.996338
1.6145e-008,-103.75599,121.93439
1.616e-008,-103.84195,146.82764
1.6175e-008,-103.93747,171.68819
1.619e-008,-104.04286,-163.47102
1.6205e-008,-104.15839,-138.6369
1.622e-008,-104.28394,-113.79697
1.6235e-008,-104.41926,-88.937645
1.625e-008,-104.56377,-64.046761
1.6265e-008,-104.71663,-39.112041
1.628e-008,-104.87667,-14.122047
1.6295e-008,-105.04245,10.93314
1.631e-008,-105.21208,36.062683
1.6325e-008,-105.3834,61.273121
1.634e-008,-105.55385,86.568367
1.6355e-008,-105.72055,111.94971
1.637e-008,-105.88043,137.41489
1.6385e-008,-106.03019,162.95689
1.64e-008,-106.16653,-171.43509
1.6415e-008,-106.28622,-145.77689
1.643e-008,-106.38634,-120.08833
1.6445e-008,-106.46441,-94.393433
1.646e-008,-106.51848,-68.719376
1.6475e-008,-106.54737,-43.093967
1.649e-008,-106.55074,-17.546169
1.6505e-008,-106.52876,7.8972635
1.652e-008,-106.48254,33.211758
1.6535e-008,-106.41354,58.377567
1.655e-008,-106.32382,83.378677
1.6565e-008,-106.21558,108.20551
1.658e-008,-106.09106,132.85332
1.6595e-008,-105.95271,157.32242
1.661e-008,-105.80272,-178.38242
1.6625e-008,-105.64321,-154.25127
1.664e-008,-105.47606,-130.27203
1.6655e-008,-105.30312,-106.42896
1.667e-008,-105.12598,-82.704628
1.6685e-008,-104.94628,-59.079697
1.67e-008,-104.7654,-35.534359
1.6715e-008,-104.58488,-12.048101
1.673e-008,-104.40601,11.399561
1.6745e-008,-104.2302,34.828415
1.676e-008,-104.0588,58.258186
1.6775e-008,-103.89323,81.706955
1.679e-008,-103.73465,105.19287
1.6805e-008,-103.58431,128.73177
1.682e-008,-103.44338,152.33907
1.6835e-008,-103.31283,176.02866
1.685e-008,-103.19346,-160.18578
1.6865e-008,-103.08595,-136.29263
1.688e-008,-102.99081,-112.28029
1.6895e-008,-102.90811,-88.138481
1.691e-008,-102.83786,-63.85733
1.6925e-008,-102.77956,-39.428139
1.694e-008,-102.73251,-14.842862
1.6955e-008,-102.6955,9.9051924
1.697e-008,-102.66711,34.822144
1.6985e-008,-102.64536,59.911564
1.7e-008,-102.62797,85.175613
1.7015e-008,-102.61218,110.61353
1.703e-008,-102.59511,136.22144
1.7045e-008,-102.57346,161.9917
1.706e-008,-102.54391,-172.08751
1.7075e-008,-102.50316,-146.03206
1.709e-008,-102.44817,-119.86302
1.7105e-008,-102.37618,-93.605202
1.712e-008,-102.28512,-67.287201
1.7135e-008,-102.17365,-40.939449
1.715e-008,-102.04118,-14.594252
1.7165e-008,-101.888,11.717796
1.718e-008,-101.71522,37.967026
1.7195e-008,-101.52458,64.127678
1.721e-008,-101.31837,90.177834
1.7225e-008,-101.09927,116.10052
1.724e-008,-100.87001,141.88344
1.7255e-008,-100.63354,167.51952
1.727e-008,-100.39246,-166.99467
1.7285e-008,-100.14932,-141.65826
1.73e-008,-99.906334,-116.46757
1.7315e-008,-99.665474,-91.416206
1.733e-008,-99.428284,-66.495972
1.7345e-008,-99.196167,-41.697079
1.736e-008,-98.970139,-17.008448
1.7375e-008,-98.751045,7.5810065
1.739e-008,-98.53949,32.083599
1.7405e-008,-98.335922,56.511311
1.742e-008,-98.140633,80.876328
1.7435e-008,-97.953804,105.19056
1.745e-008,-97.775574,129.46614
1.7465e-008,-97.605934,153.71436
1.748e-008,-97.444923,177.94638
1.7495e-008,-97.292404,-157.82727
1.751e-008,-97.148369,-133.59663
1.7525e-008,-97.012711,-109.35219
1.754e-008,-96.885277,-85.085258
1.7555e-008,-96.765984,-60.788013
1.757e-008,-96.65464,-36.45311
1.7585e-008,-96.551094,-12.07409
1.76e-008,-96.455185,12.354337
1.7615e-008,-96.366676,36.836903
1.763e-008,-96.285385,61.37727
1.7645e-008,-96.211075,85.978134
1.766e-008,-96.143478,110.6414
1.7675e-008,-96.082352,135.36768
1.769e-008,-96.027443,160.15685
1.7705e-008,-95.978493,-174.99225
1.772e-008,-95.935318,-150.0818
1.7735e-008,-95.897705,-125.11469
1.775e-008,-95.865494,-100.09495
1.7765e-008,-95.838577,-75.027023
1.778e-008,-95.817009,-49.916626
1.7795e-008,-95.800766,-24.769514
1.781e-008,-95.79007,0.40770715
1.7825e-008,-95.785164,25.608051
1.784e-008,-95.78643,50.824509
1.7855e-008,-95.794357,76.049706
1.787e-008,-95.809593,101.27612
1.7885e-008,-95.832802,126.49699
1.79e-008,-95.864899,151.70479
1.7915e-008,-95.906754,176.89305
1.793e-008,-95.959457,-157.94472
1.7945e-008,-96.024139,-132.81447
1.796e-008,-96.102028,-107.72189
1.7975e-008,-96.194427,-82.672012
1.799e-008,-96.302734,-57.669952
1.8005e-008,-96.428368,-32.719955
1.802e-008,-96.572906,-7.8263946
1.8035e-008,-96.737953,17.006926
1.805e-008,-96.925194,41.775856
1.8065e-008,-97.136459,66.476624
1.808e-008,-97.373703,91.10482
1.8095e-008,-97.638977,115.65616
1.811e-008,-97.934578,140.12532
1.8125e-008,-98.263008,164.50638
1.814e-008,-98.627037,-171.20798
1.8155e-008,-99.029831,-147.02658
1.817e-008,-99.474953,-122.96085
1.8185e-008,-99.966568,-99.025269
1.82e-008,-100.50951,-75.238792
1.8215e-008,-101.1095,-51.626396
1.823e-008,-101.77338,-28.22175
1.8245e-008,-102.50947,-5.071516
1.826e-008,-103.32769,17.759195
1.8275e-008,-104.24017,40.17614
1.829e-008,-105.26132,62.040916
1.8305e-008,-106.4076,83.142212
1.832e-008,-107.69515,103.15044
1.8335e-008,-109.13231,121.53996
1.835e-008,-110.69598,137.48303
1.8365e-008,-112.27136,149.81645
1.838e-008,-113.54416,157.56519
1.8395e-008,-114.00981,161.78462
1.841e-008,-113.43524,166.58836
1.8425e-008,-112.18316,175.47597
1.844e-008,-110.73265,-171.24252
1.8455e-008,-109.33673,-154.70731
1.847e-008,-108.07745,-136.00813
1.8485e-008,-106.966,-115.8851
1.85e-008,-105.99035,-94.804634
1.8515e-008,-105.1338,-73.059418
1.853e-008,-104.38009,-50.838627
1.8545e-008,-103.71532,-28.26689
1.856e-008,-103.12786,-5.4292049
1.8575e-008,-102.60815,17.615217
1.859e-008,-102.14834,40.824108
1.8605e-008,-101.74201,64.166817
1.862e-008,-101.38374,87.620605
1.8635e-008,-101.06902,111.16853
1.865e-008,-100.79416,134.79802
1.8665e-008,-100.55595,158.49939
1.868e-008,-100.35173,-177.73462
1.8695e-008,-100.17923,-153.90956
1.871e-008,-100.03651,-130.02969
1.8725e-008,-99.92186,-106.09801
1.874e-008,-99.833916,-82.116821
1.8755e-008,-99.771393,-58.087719
1.877e-008,-99.733315,-34.011581
1.8785e-008,-99.718735,-9.8888731
1.88e-008,-99.726898,14.280372
1.8815e-008,-99.757164,38.496441
1.883e-008,-99.808937,62.759995
1.8845e-008,-99.881721,87.072182
1.886e-008,-99.975082,111.43404
1.8875e-008,-100.08866,135.84737
1.889e-008,-100.22205,160.31406
1.8905e-008,-100.37493,-175.16394
1.892e-008,-100.54697,-150.58382
1.8935e-008,-100.73783,-125.94296
1.895e-008,-100.94709,-101.23805
1.8965e-008,-101.17438,-76.465904
1.898e-008,-101.41915,-51.622623
1.8995e-008,-101.68083,-26.70417
1.901e-008,-101.9587,-1.7064551
1.9025e-008,-102.25191,23.374949
1.904e-008,-102.55946,48.544281
1.9055e-008,-102.88013,73.805908
1.907e-008,-103.21244,99.163742
1.9085e-008,-103.55472,124.6208
1.91e-008,-103.90501,150.17975
1.9115e-008,-104.26099,175.84145
1.913e-008,-104.6202,-158.39511
1.9145e-008,-104.9798,-132.53276
1.916e-008,-105.33677,-106.57799
1.9175e-008,-105.68793,-80.539963
1.919e-008,-106.03013,-54.432423
1.9205e-008,-106.36018,-28.272152
1.922e-008,-106.67522,-2.080812
1.9235e-008,-106.97273,24.116592
1.925e-008,-107.25077,50.29208
1.9265e-008,-107.50802,76.415451
1.928e-008,-107.74382,102.45634
1.9295e-008,-107.95831,128.38397
1.931e-008,-108.15227,154.17009
1.9325e-008,-108.32713,179.78967
1.934e-008,-108.4846,-154.77901
1.9355e-008,-108.62691,-129.55234
1.937e-008,-108.75631,-104.54267
1.9385e-008,-108.87522,-79.757416
1.94e-008,-108.98582,-55.200287
1.9415e-008,-109.09013,-30.869967
1.943e-008,-109.19021,-6.7605166
1.9445e-008,-109.28753,17.133081
1.946e-008,-109.3842,40.821915
1.9475e-008,-109.4809,64.317734
1.949e-008,-109.57947,87.63456
1.9505e-008,-109.68102,110.78523
1.952e-008,-109.78671,133.78477
1.9535e-008,-109.89793,156.64896
1.955e-008,-110.01606,179.39122
1.9565e-008,-110.1427,-157.97484
1.958e-008,-110.27921,-135.43555
1.9595e-008,-110.4277,-112.98068
1.961e-008,-110.58959,-90.600861
1.9625e-008,-110.7673,-68.286377
1.964e-008,-110.96283,-46.034092
1.9655e-008,-111.17841,-23.837503
1.967e-008,-111.41626,-1.7009947
1.9685e-008,-111.67957,20.377127
1.97e-008,-111.97015,42.39003
1.9715e-008,-112.29075,64.331154
1.973e-008,-112.64433,86.183838
1.9745e-008,-113.03362,107.93348
1.976e-008,-113.46114,129.55544
1.9775e-008,-113.92976,151.02238
1.979e-008,-114.4421,172.29572
1.9805e-008,-115.00033,-166.67307
1.982e-008,-115.6058,-145.94481
1.9835e-008,-116.2587,-125.591
1.985e-008,-116.95712,-105.71173
1.9865e-008,-117.69485,-86.420647
1.988e-008,-118.46015,-67.851479
1.9895e-008,-119.23165,-50.149132
1.991e-008,-119.97463,-33.441654
1.9925e-008,-120.63968,-17.783108
1.994e-008,-121.16561,-3.0962408
1.9955e-008,-121.49303,10.920285
1.997e-008,-121.58602,24.757885
1.9985e-008,-121.44831,38.980289
2e-008,-121.12349,54.049274
END

