!CSV A.01.01
!Keysight Technologies,N5227B,US58420762,A.13.80.08
!Date: Monday, November 20, 2023 16:20:29
!Source: Standard

BEGIN CH1_DATA
Time(s),S21(DB),S21(DEG)
1e-008,-128.75208,77.785461
1.001e-008,-127.86521,94.367287
1.002e-008,-127.14506,111.20143
1.003e-008,-126.56188,128.2798
1.004e-008,-126.09448,145.59428
1.005e-008,-125.72662,163.16083
1.006e-008,-125.44507,-179.01549
1.007e-008,-125.23925,-160.90018
1.008e-008,-125.0994,-142.46931
1.009e-008,-125.01564,-123.68127
1.01e-008,-124.97773,-104.50815
1.011e-008,-124.97307,-84.905571
1.012e-008,-124.99027,-64.834358
1.013e-008,-125.01108,-44.278084
1.014e-008,-125.01749,-23.2365
1.015e-008,-124.99007,-1.7415415
1.016e-008,-124.90861,20.148058
1.017e-008,-124.75578,42.307533
1.018e-008,-124.52178,64.599251
1.019e-008,-124.20296,86.853958
1.02e-008,-123.80415,108.91164
1.021e-008,-123.33768,130.64638
1.022e-008,-122.82056,151.96828
1.023e-008,-122.26966,172.82875
1.024e-008,-121.70165,-166.78326
1.025e-008,-121.13099,-146.85252
1.026e-008,-120.5688,-127.34388
1.027e-008,-120.02393,-108.22224
1.028e-008,-119.5019,-89.445648
1.029e-008,-119.00782,-70.972946
1.03e-008,-118.54427,-52.764137
1.031e-008,-118.11293,-34.786125
1.032e-008,-117.71497,-17.010513
1.033e-008,-117.35095,0.59373939
1.034e-008,-117.02084,18.046152
1.035e-008,-116.72454,35.369053
1.036e-008,-116.46196,52.581299
1.037e-008,-116.23292,69.696075
1.038e-008,-116.03675,86.727745
1.039e-008,-115.87328,103.69061
1.04e-008,-115.74232,120.59354
1.041e-008,-115.64315,137.44966
1.042e-008,-115.57627,154.26576
1.043e-008,-115.5406,171.05238
1.044e-008,-115.53696,-172.18065
1.045e-008,-115.56472,-155.42549
1.046e-008,-115.62417,-138.67352
1.047e-008,-115.71532,-121.91608
1.048e-008,-115.83827,-105.14068
1.049e-008,-115.99313,-88.340599
1.05e-008,-116.18066,-71.500687
1.051e-008,-116.40085,-54.612141
1.052e-008,-116.65387,-37.657333
1.053e-008,-116.94009,-20.619446
1.054e-008,-117.26011,-3.4813054
1.055e-008,-117.61343,13.780298
1.056e-008,-118.00035,31.191374
1.057e-008,-118.42019,48.782303
1.058e-008,-118.87173,66.587585
1.059e-008,-119.35313,84.648148
1.06e-008,-119.8609,103.0122
1.061e-008,-120.38972,121.72801
1.062e-008,-120.93251,140.85471
1.063e-008,-121.47838,160.44318
1.064e-008,-122.01141,-179.46101
1.065e-008,-122.51368,-158.83311
1.066e-008,-122.96152,-137.68633
1.067e-008,-123.33056,-116.08143
1.068e-008,-123.59831,-94.147797
1.069e-008,-123.74829,-72.065804
1.07e-008,-123.77504,-50.055508
1.071e-008,-123.68595,-28.328251
1.072e-008,-123.49712,-7.0615516
1.073e-008,-123.23227,13.636853
1.074e-008,-122.91489,33.706196
1.075e-008,-122.56607,53.152786
1.076e-008,-122.20393,71.997391
1.077e-008,-121.842,90.297203
1.078e-008,-121.48988,108.10108
1.079e-008,-121.15318,125.46711
1.08e-008,-120.8371,142.44942
1.081e-008,-120.54255,159.09692
1.082e-008,-120.2728,175.4469
1.083e-008,-120.02631,-168.45911
1.084e-008,-119.80359,-152.59044
1.085e-008,-119.60456,-136.91972
1.086e-008,-119.42843,-121.42235
1.087e-008,-119.27435,-106.07196
1.088e-008,-119.14198,-90.855263
1.089e-008,-119.03048,-75.747894
1.09e-008,-118.93967,-60.736145
1.091e-008,-118.86921,-45.809921
1.092e-008,-118.81886,-30.949921
1.093e-008,-118.78828,-16.147179
1.094e-008,-118.77831,-1.3856072
1.095e-008,-118.78939,13.33926
1.096e-008,-118.82166,28.039717
1.097e-008,-118.87589,42.724586
1.098e-008,-118.95337,57.401325
1.099e-008,-119.05559,72.079262
1.1e-008,-119.18326,86.762062
1.101e-008,-119.33869,101.45725
1.102e-008,-119.52396,116.17614
1.103e-008,-119.74105,130.91408
1.104e-008,-119.9929,145.68806
1.105e-008,-120.28272,160.49025
1.106e-008,-120.61356,175.33606
1.107e-008,-120.99088,-169.77177
1.108e-008,-121.41887,-154.82489
1.109e-008,-121.90462,-139.82314
1.11e-008,-122.45486,-124.74457
1.111e-008,-123.08024,-109.58294
1.112e-008,-123.7918,-94.315826
1.113e-008,-124.60726,-78.9245
1.114e-008,-125.54561,-63.362183
1.115e-008,-126.63851,-47.563431
1.116e-008,-127.92889,-31.424915
1.117e-008,-129.4816,-14.750064
1.118e-008,-131.40247,2.8512878
1.119e-008,-133.87372,22.282888
1.12e-008,-137.2267,46.124409
1.121e-008,-141.81451,83.805595
1.122e-008,-143.91386,155.09912
1.123e-008,-139.47841,-150.72145
1.124e-008,-135.54222,-121.93249
1.125e-008,-132.71719,-100.74423
1.126e-008,-130.5948,-82.320992
1.127e-008,-128.92175,-65.171936
1.128e-008,-127.56235,-48.696651
1.129e-008,-126.43195,-32.641006
1.13e-008,-125.4811,-16.851631
1.131e-008,-124.6735,-1.2503159
1.132e-008,-123.98473,14.208663
1.133e-008,-123.39774,29.553822
1.134e-008,-122.89912,44.815151
1.135e-008,-122.47829,59.997658
1.136e-008,-122.12843,75.10643
1.137e-008,-121.8431,90.147034
1.138e-008,-121.61759,105.12379
1.139e-008,-121.44813,120.03564
1.14e-008,-121.33212,134.87985
1.141e-008,-121.26746,149.64966
1.142e-008,-121.25159,164.35217
1.143e-008,-121.28318,178.96895
1.144e-008,-121.36169,-166.49855
1.145e-008,-121.48696,-152.06734
1.146e-008,-121.65735,-137.73524
1.147e-008,-121.87354,-123.52448
1.148e-008,-122.13577,-109.44231
1.149e-008,-122.44408,-95.505966
1.15e-008,-122.79844,-81.733093
1.151e-008,-123.19992,-68.144157
1.152e-008,-123.64948,-54.765377
1.153e-008,-124.14802,-41.625462
1.154e-008,-124.69576,-28.760181
1.155e-008,-125.29366,-16.207493
1.156e-008,-125.94241,-4.0148106
1.157e-008,-126.6433,7.7532082
1.158e-008,-127.39246,19.032677
1.159e-008,-128.19121,29.731049
1.16e-008,-129.03282,39.74292
1.161e-008,-129.91313,48.950615
1.162e-008,-130.81445,57.199604
1.163e-008,-131.71613,64.322739
1.164e-008,-132.58072,70.175385
1.165e-008,-133.35815,74.632813
1.166e-008,-133.97334,77.734406
1.167e-008,-134.3511,79.713303
1.168e-008,-134.43259,81.097404
1.169e-008,-134.2028,82.558701
1.17e-008,-133.69051,84.740059
1.171e-008,-132.96413,88.036514
1.172e-008,-132.09808,92.620171
1.173e-008,-131.14871,98.440933
1.174e-008,-130.15958,105.43446
1.175e-008,-129.16023,113.43027
1.176e-008,-128.16931,122.32745
1.177e-008,-127.19986,131.99025
1.178e-008,-126.25737,142.33247
1.179e-008,-125.34938,153.25594
1.18e-008,-124.4776,164.71083
1.181e-008,-123.64561,176.61787
1.182e-008,-122.85329,-171.07393
1.183e-008,-122.10149,-158.40427
1.184e-008,-121.38962,-145.41199
1.185e-008,-120.719,-132.13698
1.186e-008,-120.0874,-118.60315
1.187e-008,-119.49535,-104.84144
1.188e-008,-118.94193,-90.868225
1.189e-008,-118.42641,-76.710861
1.19e-008,-117.94804,-62.374981
1.191e-008,-117.50633,-47.881432
1.192e-008,-117.10005,-33.244522
1.193e-008,-116.72913,-18.471592
1.194e-008,-116.39281,-3.5700431
1.195e-008,-116.09062,11.445943
1.196e-008,-115.82162,26.576344
1.197e-008,-115.58599,41.813419
1.198e-008,-115.38309,57.153473
1.199e-008,-115.21296,72.591995
1.2e-008,-115.07487,88.128197
1.201e-008,-114.96934,103.7599
1.202e-008,-114.89535,119.48672
1.203e-008,-114.8539,135.31245
1.204e-008,-114.84418,151.23659
1.205e-008,-114.86666,167.26102
1.206e-008,-114.92123,-176.60796
1.207e-008,-115.00835,-160.3672
1.208e-008,-115.12823,-144.00827
1.209e-008,-115.28072,-127.52289
1.21e-008,-115.46546,-110.89906
1.211e-008,-115.68378,-94.126465
1.212e-008,-115.93485,-77.191422
1.213e-008,-116.21828,-60.076099
1.214e-008,-116.53371,-42.760612
1.215e-008,-116.88014,-25.218773
1.216e-008,-117.2556,-7.4289842
1.217e-008,-117.65763,10.644807
1.218e-008,-118.08342,29.020992
1.219e-008,-118.52739,47.748112
1.22e-008,-118.98258,66.846817
1.221e-008,-119.4403,86.345741
1.222e-008,-119.88963,106.25674
1.223e-008,-120.31738,126.58487
1.224e-008,-120.70855,147.29454
1.225e-008,-121.04926,168.33366
1.226e-008,-121.32749,-170.39209
1.227e-008,-121.53329,-149.00917
1.228e-008,-121.66599,-127.65148
1.229e-008,-121.72903,-106.46023
1.23e-008,-121.73286,-85.551933
1.231e-008,-121.6915,-65.021698
1.232e-008,-121.6218,-44.932739
1.233e-008,-121.53871,-25.312756
1.234e-008,-121.45817,-6.1656556
1.235e-008,-121.39193,12.508791
1.236e-008,-121.35209,30.730955
1.237e-008,-121.3467,48.517307
1.238e-008,-121.38391,65.885239
1.239e-008,-121.46873,82.842781
1.24e-008,-121.60831,99.392944
1.241e-008,-121.80611,115.52106
1.242e-008,-122.0672,131.2108
1.243e-008,-122.39516,146.41521
1.244e-008,-122.79296,161.07523
1.245e-008,-123.26272,175.09877
1.246e-008,-123.80266,-171.63899
1.247e-008,-124.40671,-159.31
1.248e-008,-125.05682,-148.12549
1.249e-008,-125.71725,-138.34065
1.25e-008,-126.32766,-130.15192
1.251e-008,-126.79369,-123.62093
1.252e-008,-127.00589,-118.42979
1.253e-008,-126.87978,-113.83184
1.254e-008,-126.41362,-108.82587
1.255e-008,-125.68174,-102.62122
1.256e-008,-124.79484,-94.87278
1.257e-008,-123.84671,-85.604462
1.258e-008,-122.90363,-75.024071
1.259e-008,-122.00192,-63.3927
1.26e-008,-121.15881,-50.92535
1.261e-008,-120.38216,-37.813587
1.262e-008,-119.67363,-24.196697
1.263e-008,-119.03146,-10.180319
1.264e-008,-118.45295,4.1515999
1.265e-008,-117.93472,18.735764
1.266e-008,-117.47375,33.531433
1.267e-008,-117.0666,48.495953
1.268e-008,-116.71103,63.605488
1.269e-008,-116.40396,78.837517
1.27e-008,-116.14368,94.177345
1.271e-008,-115.92792,109.61
1.272e-008,-115.75547,125.12941
1.273e-008,-115.62462,140.72438
1.274e-008,-115.53454,156.39511
1.275e-008,-115.48405,172.13792
1.276e-008,-115.47239,-172.04839
1.277e-008,-115.49905,-156.16261
1.278e-008,-115.56354,-140.2007
1.279e-008,-115.6652,-124.1575
1.28e-008,-115.80415,-108.027
1.281e-008,-115.98001,-91.800308
1.282e-008,-116.19231,-75.461456
1.283e-008,-116.44085,-59.001484
1.284e-008,-116.72518,-42.396652
1.285e-008,-117.04465,-25.628332
1.286e-008,-117.39807,-8.6663046
1.287e-008,-117.78362,8.5166311
1.288e-008,-118.19872,25.961514
1.289e-008,-118.63969,43.711342
1.29e-008,-119.09996,61.80949
1.291e-008,-119.57152,80.307396
1.292e-008,-120.04311,99.25502
1.293e-008,-120.49917,118.68581
1.294e-008,-120.92047,138.6196
1.295e-008,-121.28462,159.03175
1.296e-008,-121.56795,179.85649
1.297e-008,-121.74974,-159.02563
1.298e-008,-121.81422,-137.80161
1.299e-008,-121.75787,-116.66757
1.3e-008,-121.58626,-95.825996
1.301e-008,-121.31557,-75.42794
1.302e-008,-120.96594,-55.583183
1.303e-008,-120.55986,-36.333824
1.304e-008,-120.11655,-17.68099
1.305e-008,-119.65186,0.40869284
1.306e-008,-119.17915,17.980198
1.307e-008,-118.70691,35.095428
1.308e-008,-118.24072,51.80909
1.309e-008,-117.78521,68.180473
1.31e-008,-117.34283,84.256897
1.311e-008,-116.91505,100.09014
1.312e-008,-116.50242,115.71735
1.313e-008,-116.10529,131.17712
1.314e-008,-115.72457,146.50044
1.315e-008,-115.35979,161.71825
1.316e-008,-115.01135,176.85298
1.317e-008,-114.67922,-168.07202
1.318e-008,-114.36379,-153.03813
1.319e-008,-114.06535,-138.02731
1.32e-008,-113.78437,-123.02625
1.321e-008,-113.52116,-108.02296
1.322e-008,-113.27654,-93.005699
1.323e-008,-113.0509,-77.964684
1.324e-008,-112.84508,-62.892998
1.325e-008,-112.65938,-47.783447
1.326e-008,-112.49495,-32.629356
1.327e-008,-112.35211,-17.425596
1.328e-008,-112.23207,-2.1668625
1.329e-008,-112.13535,13.148964
1.33e-008,-112.06288,28.529861
1.331e-008,-112.01531,43.977245
1.332e-008,-111.99386,59.497696
1.333e-008,-111.99902,75.093231
1.334e-008,-112.03201,90.771324
1.335e-008,-112.09365,106.53712
1.336e-008,-112.18512,122.39851
1.337e-008,-112.30738,138.36256
1.338e-008,-112.46171,154.4393
1.339e-008,-112.64899,170.63991
1.34e-008,-112.8709,-173.02057
1.341e-008,-113.12804,-156.52612
1.342e-008,-113.4223,-139.85358
1.343e-008,-113.75405,-122.98126
1.344e-008,-114.12464,-105.87649
1.345e-008,-114.53442,-88.500214
1.346e-008,-114.98285,-70.808525
1.347e-008,-115.46879,-52.745514
1.348e-008,-115.98893,-34.243965
1.349e-008,-116.53746,-15.230361
1.35e-008,-117.10397,4.3825388
1.351e-008,-117.67328,24.677456
1.352e-008,-118.22264,45.724327
1.353e-008,-118.72182,67.556396
1.354e-008,-119.1336,90.132309
1.355e-008,-119.42094,113.30196
1.356e-008,-119.55418,136.81184
1.357e-008,-119.52232,160.32687
1.358e-008,-119.33475,-176.49258
1.359e-008,-119.02094,-153.90996
1.36e-008,-118.61768,-132.08289
1.361e-008,-118.16285,-111.05814
1.362e-008,-117.68737,-90.811264
1.363e-008,-117.21506,-71.274559
1.364e-008,-116.76197,-52.366234
1.365e-008,-116.339,-34.000465
1.366e-008,-115.95248,-16.107519
1.367e-008,-115.60651,1.381138
1.368e-008,-115.30248,18.516338
1.369e-008,-115.04115,35.342705
1.37e-008,-114.82247,51.891766
1.371e-008,-114.64579,68.196014
1.372e-008,-114.51045,84.26989
1.373e-008,-114.41537,100.13235
1.374e-008,-114.35962,115.79165
1.375e-008,-114.3418,131.25786
1.376e-008,-114.36092,146.53062
1.377e-008,-114.41582,161.61235
1.378e-008,-114.50493,176.50131
1.379e-008,-114.62666,-168.80894
1.38e-008,-114.77953,-154.325
1.381e-008,-114.96107,-140.05318
1.382e-008,-115.16921,-126.00397
1.383e-008,-115.40096,-112.18851
1.384e-008,-115.65285,-98.615868
1.385e-008,-115.92088,-85.292526
1.386e-008,-116.20033,-72.228249
1.387e-008,-116.48582,-59.420944
1.388e-008,-116.77184,-46.868172
1.389e-008,-117.05174,-34.554047
1.39e-008,-117.31987,-22.458349
1.391e-008,-117.56996,-10.547171
1.392e-008,-117.79815,1.2222186
1.393e-008,-118.00053,12.90358
1.394e-008,-118.17603,24.554121
1.395e-008,-118.32584,36.234901
1.396e-008,-118.45325,48.003231
1.397e-008,-118.56281,59.908756
1.398e-008,-118.66162,71.996735
1.399e-008,-118.75725,84.297501
1.4e-008,-118.85828,96.832512
1.401e-008,-118.97253,109.61967
1.402e-008,-119.10847,122.65708
1.403e-008,-119.27434,135.95288
1.404e-008,-119.47814,149.4984
1.405e-008,-119.72791,163.29565
1.406e-008,-120.03172,177.33588
1.407e-008,-120.398,-168.37448
1.408e-008,-120.8366,-153.83356
1.409e-008,-121.35898,-139.02571
1.41e-008,-121.97769,-123.92827
1.411e-008,-122.70966,-108.49074
1.412e-008,-123.57686,-92.644463
1.413e-008,-124.60745,-76.25769
1.414e-008,-125.84084,-59.11306
1.415e-008,-127.33118,-40.805611
1.416e-008,-129.14812,-20.559214
1.417e-008,-131.35661,3.2689312
1.418e-008,-133.86514,34.109055
1.419e-008,-135.75313,76.581779
1.42e-008,-135.18463,124.2396
1.421e-008,-132.8286,161.76703
1.422e-008,-130.39264,-170.68913
1.423e-008,-128.34102,-148.45728
1.424e-008,-126.66385,-128.93405
1.425e-008,-125.28787,-110.93156
1.426e-008,-124.15068,-93.845055
1.427e-008,-123.20635,-77.369225
1.428e-008,-122.42211,-61.32547
1.429e-008,-121.77482,-45.61108
1.43e-008,-121.24723,-30.164261
1.431e-008,-120.826,-14.959368
1.432e-008,-120.50278,0.024424594
1.433e-008,-120.2709,14.78764
1.434e-008,-120.12445,29.324659
1.435e-008,-120.06065,43.603401
1.436e-008,-120.07581,57.603828
1.437e-008,-120.16829,71.274666
1.438e-008,-120.33531,84.559021
1.439e-008,-120.5735,97.378052
1.44e-008,-120.87812,109.63633
1.441e-008,-121.23898,121.21072
1.442e-008,-121.64132,131.96614
1.443e-008,-122.05949,141.75273
1.444e-008,-122.45235,150.44891
1.445e-008,-122.76623,158.01349
1.446e-008,-122.93621,164.58116
1.447e-008,-122.90277,170.49886
1.448e-008,-122.63605,176.29861
1.449e-008,-122.15218,-177.44171
1.45e-008,-121.4996,-170.29889
1.451e-008,-120.74258,-162.0786
1.452e-008,-119.93955,-152.76813
1.453e-008,-119.13395,-142.47569
1.454e-008,-118.3543,-131.34105
1.455e-008,-117.61778,-119.51701
1.456e-008,-116.93341,-107.13255
1.457e-008,-116.30573,-94.29541
1.458e-008,-115.73568,-81.095963
1.459e-008,-115.22365,-67.609383
1.46e-008,-114.76821,-53.890984
1.461e-008,-114.36785,-39.988945
1.462e-008,-114.02147,-25.942867
1.463e-008,-113.72715,-11.782988
1.464e-008,-113.4837,2.4573474
1.465e-008,-113.29037,16.757744
1.466e-008,-113.14582,31.096109
1.467e-008,-113.04971,45.44907
1.468e-008,-113.0013,59.801613
1.469e-008,-113.00043,74.131218
1.47e-008,-113.04722,88.41774
1.471e-008,-113.141,102.64017
1.472e-008,-113.28329,116.7771
1.473e-008,-113.47334,130.80469
1.474e-008,-113.71188,144.6881
1.475e-008,-113.9989,158.39738
1.476e-008,-114.33488,171.89252
1.477e-008,-114.71825,-174.87112
1.478e-008,-115.14857,-161.94958
1.479e-008,-115.62206,-149.40649
1.48e-008,-116.13332,-137.31665
1.481e-008,-116.67401,-125.75802
1.482e-008,-117.23079,-114.81481
1.483e-008,-117.78356,-104.55681
1.484e-008,-118.30592,-95.030464
1.485e-008,-118.76454,-86.216362
1.486e-008,-119.12459,-78.006325
1.487e-008,-119.35603,-70.193405
1.488e-008,-119.44296,-62.486439
1.489e-008,-119.38776,-54.559772
1.49e-008,-119.21353,-46.139336
1.491e-008,-118.95351,-37.045013
1.492e-008,-118.64463,-27.18746
1.493e-008,-118.32043,-16.569206
1.494e-008,-118.00738,-5.2420306
1.495e-008,-117.72558,6.725204
1.496e-008,-117.48945,19.249205
1.497e-008,-117.30997,32.260532
1.498e-008,-117.19491,45.692577
1.499e-008,-117.15015,59.496754
1.5e-008,-117.18198,73.630722
1.501e-008,-117.29657,88.06575
1.502e-008,-117.5006,102.78158
1.503e-008,-117.80246,117.77956
1.504e-008,-118.21325,133.06265
1.505e-008,-118.74791,148.66815
1.506e-008,-119.42532,164.64931
1.507e-008,-120.27277,-178.89
1.508e-008,-121.32888,-161.76288
1.509e-008,-122.64808,-143.61673
1.51e-008,-124.30776,-123.78266
1.511e-008,-126.40523,-100.7959
1.512e-008,-128.94926,-71.313484
1.513e-008,-131.22815,-29.2243
1.514e-008,-130.93697,22.221533
1.515e-008,-128.26309,63.094421
1.516e-008,-125.44788,91.908791
1.517e-008,-123.09075,114.68192
1.518e-008,-121.15978,134.5354
1.519e-008,-119.55884,152.8307
1.52e-008,-118.21139,170.21506
1.521e-008,-117.06322,-172.97989
1.522e-008,-116.07686,-156.56633
1.523e-008,-115.22461,-140.43573
1.524e-008,-114.48714,-124.51943
1.525e-008,-113.84959,-108.77449
1.526e-008,-113.30051,-93.170662
1.527e-008,-112.83101,-77.692368
1.528e-008,-112.43444,-62.327164
1.529e-008,-112.10527,-47.069695
1.53e-008,-111.8393,-31.917614
1.531e-008,-111.63266,-16.873058
1.532e-008,-111.48305,-1.9396662
1.533e-008,-111.38786,12.875125
1.534e-008,-111.34526,27.563717
1.535e-008,-111.35372,42.11245
1.536e-008,-111.41167,56.507511
1.537e-008,-111.51782,70.730797
1.538e-008,-111.6709,84.762146
1.539e-008,-111.86896,98.576988
1.54e-008,-112.11004,112.14687
1.541e-008,-112.39165,125.43916
1.542e-008,-112.71,138.42262
1.543e-008,-113.06004,151.05629
1.544e-008,-113.43523,163.30589
1.545e-008,-113.82676,175.13617
1.546e-008,-114.22365,-173.47639
1.547e-008,-114.61213,-162.54161
1.548e-008,-114.97748,-152.04407
1.549e-008,-115.30376,-141.93443
1.55e-008,-115.57708,-132.12601
1.551e-008,-115.78731,-122.50271
1.552e-008,-115.9311,-112.91856
1.553e-008,-116.01215,-103.23088
1.554e-008,-116.0419,-93.307266
1.555e-008,-116.03616,-83.049477
1.556e-008,-116.01437,-72.39769
1.557e-008,-115.99635,-61.328072
1.558e-008,-116.0017,-49.841846
1.559e-008,-116.048,-37.96719
1.56e-008,-116.15183,-25.74094
1.561e-008,-116.32974,-13.212338
1.562e-008,-116.59826,-0.43064186
1.563e-008,-116.97575,12.544441
1.564e-008,-117.48454,25.648352
1.565e-008,-118.15372,38.800182
1.566e-008,-119.02426,51.891235
1.567e-008,-120.15584,64.750732
1.568e-008,-121.64438,77.077431
1.569e-008,-123.65823,88.21067
1.57e-008,-126.5173,96.39164
1.571e-008,-130.81805,95.11116
1.572e-008,-135.04263,58.145252
1.573e-008,-130.55011,19.216875
1.574e-008,-125.6758,17.401823
1.575e-008,-122.26952,25.762001
1.576e-008,-119.7273,37.363922
1.577e-008,-117.71954,50.37534
1.578e-008,-116.07462,64.121178
1.579e-008,-114.69476,78.30793
1.58e-008,-113.52,92.779175
1.581e-008,-112.51021,107.44585
1.582e-008,-111.63877,122.25374
1.583e-008,-110.88647,137.16624
1.584e-008,-110.23954,152.15843
1.585e-008,-109.68767,167.21123
1.586e-008,-109.2234,-177.69104
1.587e-008,-108.8415,-162.55936
1.588e-008,-108.53831,-147.40192
1.589e-008,-108.31126,-132.22919
1.59e-008,-108.15923,-117.04951
1.591e-008,-108.08235,-101.86906
1.592e-008,-108.08172,-86.697487
1.593e-008,-108.15972,-71.542465
1.594e-008,-108.31994,-56.41494
1.595e-008,-108.56794,-41.326279
1.596e-008,-108.91087,-26.290682
1.597e-008,-109.35876,-11.328091
1.598e-008,-109.92505,3.5367849
1.599e-008,-110.62855,18.266483
1.6e-008,-111.49536,32.804691
1.601e-008,-112.56303,47.062912
1.602e-008,-113.8888,60.884697
1.603e-008,-115.56367,73.97496
1.604e-008,-117.74438,85.687599
1.605e-008,-120.72069,94.304802
1.606e-008,-124.99255,93.82634
1.607e-008,-129.29926,61.870033
1.608e-008,-125.82955,22.973215
1.609e-008,-121.29159,19.306545
1.61e-008,-118.12775,26.750765
1.611e-008,-115.83475,37.67572
1.612e-008,-114.09284,50.005371
1.613e-008,-112.73213,62.97477
1.614e-008,-111.65594,76.226051
1.615e-008,-110.80572,89.555862
1.616e-008,-110.14376,102.82699
1.617e-008,-109.64524,115.92443
1.618e-008,-109.2925,128.73999
1.619e-008,-109.0721,141.15211
1.62e-008,-108.97234,153.01784
1.621e-008,-108.9791,164.16557
1.622e-008,-109.07233,174.38521
1.623e-008,-109.21888,-176.56274
1.624e-008,-109.36469,-168.90363
1.625e-008,-109.42816,-162.75586
1.626e-008,-109.30693,-157.96667
1.627e-008,-108.9081,-153.98117
1.628e-008,-108.19663,-149.93243
1.629e-008,-107.21548,-144.9832
1.63e-008,-106.0579,-138.64195
1.631e-008,-104.82017,-130.80925
1.632e-008,-103.57492,-121.62721
1.633e-008,-102.3671,-111.32807
1.634e-008,-101.22126,-100.14402
1.635e-008,-100.14866,-88.274681
1.636e-008,-99.153358,-75.880898
1.637e-008,-98.23568,-63.090199
1.638e-008,-97.394012,-50.002926
1.639e-008,-96.626045,-36.699795
1.64e-008,-95.929413,-23.247915
1.641e-008,-95.301857,-9.7036781
1.642e-008,-94.741524,3.8817532
1.643e-008,-94.246841,17.461002
1.644e-008,-93.816536,30.986629
1.645e-008,-93.449684,44.409916
1.646e-008,-93.14537,57.677429
1.647e-008,-92.90255,70.728844
1.648e-008,-92.719551,83.494118
1.649e-008,-92.593559,95.890442
1.65e-008,-92.519516,107.81968
1.651e-008,-92.488609,119.16754
1.652e-008,-92.486023,129.80618
1.653e-008,-92.488243,139.60658
1.654e-008,-92.460098,148.46458
1.655e-008,-92.353989,156.34985
1.656e-008,-92.114296,163.36803
1.657e-008,-91.69001,169.80618
1.658e-008,-91.052528,176.1098
1.659e-008,-90.207939,-177.22968
1.66e-008,-89.193916,-169.81714
1.661e-008,-88.063736,-161.43457
1.662e-008,-86.86956,-152.03351
1.663e-008,-85.652916,-141.67682
1.664e-008,-84.442749,-130.4796
1.665e-008,-83.257317,-118.56921
1.666e-008,-82.107101,-106.06487
1.667e-008,-80.997421,-93.069489
1.668e-008,-79.930374,-79.668678
1.669e-008,-78.906128,-65.932198
1.67e-008,-77.923714,-51.916435
1.671e-008,-76.981598,-37.666824
1.672e-008,-76.07795,-23.220135
1.673e-008,-75.210846,-8.6062183
1.674e-008,-74.37838,6.1505599
1.675e-008,-73.57872,21.03022
1.676e-008,-72.810127,36.01622
1.677e-008,-72.070992,51.094788
1.678e-008,-71.35981,66.254379
1.679e-008,-70.675224,81.485321
1.68e-008,-70.015953,96.779335
1.681e-008,-69.380836,112.12942
1.682e-008,-68.768806,127.52953
1.683e-008,-68.178886,142.9745
1.684e-008,-67.610168,158.45982
1.685e-008,-67.061836,173.98154
1.686e-008,-66.533119,-170.46375
1.687e-008,-66.023315,-154.87906
1.688e-008,-65.531776,-139.26706
1.689e-008,-65.057907,-123.63009
1.69e-008,-64.601143,-107.97025
1.691e-008,-64.160973,-92.289391
1.692e-008,-63.736927,-76.589203
1.693e-008,-63.328552,-60.871166
1.694e-008,-62.935444,-45.136662
1.695e-008,-62.557217,-29.386871
1.696e-008,-62.193512,-13.622924
1.697e-008,-61.843994,2.1541827
1.698e-008,-61.508358,17.943533
1.699e-008,-61.186314,33.744293
1.7e-008,-60.877586,49.555702
1.701e-008,-60.581924,65.37706
1.702e-008,-60.299091,81.20771
1.703e-008,-60.028866,97.047081
1.704e-008,-59.771042,112.89461
1.705e-008,-59.525429,128.74977
1.706e-008,-59.29184,144.61214
1.707e-008,-59.07011,160.48123
1.708e-008,-58.860081,176.35669
1.709e-008,-58.661606,-167.76192
1.71e-008,-58.474548,-151.87492
1.711e-008,-58.298786,-135.98265
1.712e-008,-58.13419,-120.08543
1.713e-008,-57.980659,-104.18353
1.714e-008,-57.838089,-88.277252
1.715e-008,-57.706387,-72.366852
1.716e-008,-57.585464,-56.452579
1.717e-008,-57.47525,-40.53466
1.718e-008,-57.375664,-24.613325
1.719e-008,-57.286648,-8.6887846
1.72e-008,-57.208138,7.2387586
1.721e-008,-57.140087,23.169109
1.722e-008,-57.082447,39.102081
1.723e-008,-57.035179,55.037495
1.724e-008,-56.998253,70.975166
1.725e-008,-56.971638,86.914948
1.726e-008,-56.955315,102.85666
1.727e-008,-56.949268,118.80015
1.728e-008,-56.953487,134.74527
1.729e-008,-56.967968,150.69185
1.73e-008,-56.99271,166.63972
1.731e-008,-57.027725,-177.41121
1.732e-008,-57.073021,-161.46115
1.733e-008,-57.12862,-145.51021
1.734e-008,-57.194546,-129.55853
1.735e-008,-57.270832,-113.60629
1.736e-008,-57.35751,-97.653633
1.737e-008,-57.454628,-81.700706
1.738e-008,-57.562233,-65.747665
1.739e-008,-57.680382,-49.794685
1.74e-008,-57.809135,-33.841923
1.741e-008,-57.948566,-17.889551
1.742e-008,-58.098751,-1.9377588
1.743e-008,-58.259773,14.013275
1.744e-008,-58.431728,29.963341
1.745e-008,-58.614712,45.912224
1.746e-008,-58.808838,61.859715
1.747e-008,-59.014221,77.805557
1.748e-008,-59.230999,93.749496
1.749e-008,-59.459301,109.69125
1.75e-008,-59.69928,125.63051
1.751e-008,-59.951096,141.56697
1.752e-008,-60.214928,157.50023
1.753e-008,-60.490959,173.42993
1.754e-008,-60.779396,-170.64438
1.755e-008,-61.080452,-154.72319
1.756e-008,-61.394363,-138.80701
1.757e-008,-61.721382,-122.89645
1.758e-008,-62.061779,-106.99219
1.759e-008,-62.415855,-91.09494
1.76e-008,-62.783924,-75.205559
1.761e-008,-63.166328,-59.324997
1.762e-008,-63.563454,-43.454311
1.763e-008,-63.975697,-27.594715
1.764e-008,-64.403496,-11.747608
1.765e-008,-64.847343,4.0854378
1.766e-008,-65.307755,19.902586
1.767e-008,-65.785309,35.701752
1.768e-008,-66.280624,51.48048
1.769e-008,-66.794403,67.235962
1.77e-008,-67.327408,82.96489
1.771e-008,-67.880463,98.663391
1.772e-008,-68.454506,114.32688
1.773e-008,-69.05056,129.95
1.774e-008,-69.669769,145.52625
1.775e-008,-70.313377,161.04794
1.776e-008,-70.982819,176.50578
1.777e-008,-71.679626,-168.11153
1.778e-008,-72.405563,-152.81775
1.779e-008,-73.162529,-137.62988
1.78e-008,-73.952637,-122.56892
1.781e-008,-74.77816,-107.6612
1.782e-008,-75.641533,-92.939835
1.783e-008,-76.545204,-78.446938
1.784e-008,-77.491508,-64.236336
1.785e-008,-78.482254,-50.377331
1.786e-008,-79.51812,-36.959167
1.787e-008,-80.597427,-24.096558
1.788e-008,-81.714195,-11.934479
1.789e-008,-82.854759,-0.64944994
1.79e-008,-83.992813,9.5604973
1.791e-008,-85.083199,18.512419
1.792e-008,-86.057762,26.119904
1.793e-008,-86.831001,32.519573
1.794e-008,-87.32431,38.173817
1.795e-008,-87.502739,43.813805
1.796e-008,-87.395203,50.183743
1.797e-008,-87.077164,57.773525
1.798e-008,-86.633858,66.743889
1.799e-008,-86.134422,77.021187
1.8e-008,-85.624969,88.42543
1.801e-008,-85.132278,100.75648
1.802e-008,-84.669998,113.83353
1.803e-008,-84.243759,127.50687
1.804e-008,-83.854683,141.65715
1.805e-008,-83.50145,156.19052
1.806e-008,-83.181541,171.03343
1.807e-008,-82.891937,-173.87219
1.808e-008,-82.629509,-158.57254
1.809e-008,-82.39119,-143.10487
1.81e-008,-82.174126,-127.49957
1.811e-008,-81.97567,-111.78169
1.812e-008,-81.793442,-95.97226
1.813e-008,-81.62532,-80.089058
1.814e-008,-81.469414,-64.147209
1.815e-008,-81.324066,-48.159729
1.816e-008,-81.187836,-32.137932
1.817e-008,-81.059471,-16.091639
1.818e-008,-80.93792,-0.029317403
1.819e-008,-80.822273,16.041622
1.82e-008,-80.711792,32.114876
1.821e-008,-80.605873,48.18499
1.822e-008,-80.504021,64.247322
1.823e-008,-80.405861,80.298058
1.824e-008,-80.311119,96.33403
1.825e-008,-80.219597,112.35278
1.826e-008,-80.13118,128.3524
1.827e-008,-80.045807,144.3315
1.828e-008,-79.963486,160.28923
1.829e-008,-79.884277,176.22511
1.83e-008,-79.808258,-167.86089
1.831e-008,-79.735558,-151.96849
1.832e-008,-79.666328,-136.09714
1.833e-008,-79.600746,-120.246
1.834e-008,-79.539017,-104.41411
1.835e-008,-79.481323,-88.600212
1.836e-008,-79.42791,-72.803024
1.837e-008,-79.37899,-57.021118
1.838e-008,-79.334801,-41.253021
1.839e-008,-79.29557,-25.497194
1.84e-008,-79.261536,-9.7520933
1.841e-008,-79.232918,5.9838471
1.842e-008,-79.209961,21.7122
1.843e-008,-79.192863,37.434383
1.844e-008,-79.181862,53.151939
1.845e-008,-79.177147,68.866264
1.846e-008,-79.178925,84.578735
1.847e-008,-79.187386,100.2907
1.848e-008,-79.202705,116.00335
1.849e-008,-79.225052,131.71791
1.85e-008,-79.254585,147.43546
1.851e-008,-79.291428,163.15707
1.852e-008,-79.335732,178.88376
1.853e-008,-79.387611,-165.38354
1.854e-008,-79.447159,-149.64392
1.855e-008,-79.514473,-133.89659
1.856e-008,-79.58963,-118.1408
1.857e-008,-79.672691,-102.37576
1.858e-008,-79.76371,-86.600807
1.859e-008,-79.862709,-70.815292
1.86e-008,-79.969711,-55.0186
1.861e-008,-80.084724,-39.210201
1.862e-008,-80.207733,-23.389545
1.863e-008,-80.338715,-7.556077
1.864e-008,-80.477623,8.2905731
1.865e-008,-80.624397,24.150938
1.866e-008,-80.778976,40.025364
1.867e-008,-80.941254,55.914253
1.868e-008,-81.11113,71.817932
1.869e-008,-81.288498,87.736679
1.87e-008,-81.47319,103.67079
1.871e-008,-81.66507,119.62049
1.872e-008,-81.863953,135.58586
1.873e-008,-82.069656,151.56715
1.874e-008,-82.281975,167.56436
1.875e-008,-82.500694,-176.42258
1.876e-008,-82.725555,-160.39369
1.877e-008,-82.956322,-144.34921
1.878e-008,-83.192719,-128.28937
1.879e-008,-83.434471,-112.21453
1.88e-008,-83.681282,-96.125237
1.881e-008,-83.932846,-80.022095
1.882e-008,-84.18885,-63.905834
1.883e-008,-84.448975,-47.777405
1.884e-008,-84.712891,-31.637875
1.885e-008,-84.98027,-15.488451
1.886e-008,-85.250793,0.66946352
1.887e-008,-85.524132,16.834209
1.888e-008,-85.799965,33.004051
1.889e-008,-86.077988,49.177013
1.89e-008,-86.35791,65.350914
1.891e-008,-86.639465,81.523376
1.892e-008,-86.922386,97.691879
1.893e-008,-87.206459,113.85365
1.894e-008,-87.491478,130.00597
1.895e-008,-87.777275,146.14566
1.896e-008,-88.063713,162.26955
1.897e-008,-88.350708,178.37434
1.898e-008,-88.638168,-165.54329
1.899e-008,-88.926102,-149.48685
1.9e-008,-89.2145,-133.4599
1.901e-008,-89.503426,-117.46605
1.902e-008,-89.792961,-101.50883
1.903e-008,-90.083214,-85.591843
1.904e-008,-90.374336,-69.71875
1.905e-008,-90.666512,-53.89315
1.906e-008,-90.95993,-38.118542
1.907e-008,-91.254791,-22.398401
1.908e-008,-91.551315,-6.7362113
1.909e-008,-91.849731,8.8645
1.91e-008,-92.150253,24.400557
1.911e-008,-92.453094,39.868538
1.912e-008,-92.758423,55.265202
1.913e-008,-93.066406,70.587227
1.914e-008,-93.37719,85.831688
1.915e-008,-93.690819,100.99529
1.916e-008,-94.007332,116.07507
1.917e-008,-94.326691,131.06807
1.918e-008,-94.648804,145.97171
1.919e-008,-94.97345,160.78308
1.92e-008,-95.300354,175.49997
1.921e-008,-95.629158,-169.87968
1.922e-008,-95.959389,-155.35776
1.923e-008,-96.290443,-140.93527
1.924e-008,-96.621643,-126.61292
1.925e-008,-96.952248,-112.39058
1.926e-008,-97.281357,-98.26725
1.927e-008,-97.608047,-84.240662
1.928e-008,-97.931282,-70.307991
1.929e-008,-98.250046,-56.464348
1.93e-008,-98.563393,-42.704136
1.931e-008,-98.870262,-29.019558
1.932e-008,-99.1698,-15.402513
1.933e-008,-99.461227,-1.8420907
1.934e-008,-99.744057,11.672515
1.935e-008,-100.01794,25.154158
1.936e-008,-100.28269,38.615868
1.937e-008,-100.53868,52.071201
1.938e-008,-100.78629,65.533272
1.939e-008,-101.02634,79.016006
1.94e-008,-101.25994,92.531746
1.941e-008,-101.4884,106.09184
1.942e-008,-101.71323,119.70625
1.943e-008,-101.93625,133.38393
1.944e-008,-102.15925,147.1319
1.945e-008,-102.38425,160.95564
1.946e-008,-102.61319,174.85849
1.947e-008,-102.8482,-171.15756
1.948e-008,-103.09122,-157.09169
1.949e-008,-103.34436,-142.94527
1.95e-008,-103.60944,-128.72101
1.951e-008,-103.88857,-114.42236
1.952e-008,-104.18343,-100.05412
1.953e-008,-104.4959,-85.623756
1.954e-008,-104.82771,-71.137886
1.955e-008,-105.18064,-56.60648
1.956e-008,-105.55625,-42.039368
1.957e-008,-105.95622,-27.449671
1.958e-008,-106.38219,-12.851929
1.959e-008,-106.83572,1.7370149
1.96e-008,-107.3182,16.297926
1.961e-008,-107.83122,30.804733
1.962e-008,-108.37584,45.23214
1.963e-008,-108.95316,59.542332
1.964e-008,-109.56355,73.697395
1.965e-008,-110.2069,87.645195
1.966e-008,-110.88159,101.32721
1.967e-008,-111.58424,114.67102
1.968e-008,-112.30898,127.59649
1.969e-008,-113.04525,140.00821
1.97e-008,-113.77662,151.81601
1.971e-008,-114.47917,162.93793
1.972e-008,-115.12079,173.33372
1.973e-008,-115.66139,-176.959
1.974e-008,-116.06143,-167.79337
1.975e-008,-116.28867,-158.89626
1.976e-008,-116.33091,-149.91907
1.977e-008,-116.19968,-140.51007
1.978e-008,-115.92583,-130.40022
1.979e-008,-115.54912,-119.44063
1.98e-008,-115.10793,-107.59724
1.981e-008,-114.63457,-94.911407
1.982e-008,-114.15292,-81.470268
1.983e-008,-113.67837,-67.366676
1.984e-008,-113.22182,-52.698795
1.985e-008,-112.78959,-37.549603
1.986e-008,-112.38532,-21.996851
1.987e-008,-112.01093,-6.1007667
1.988e-008,-111.66742,10.085813
1.989e-008,-111.35552,26.521746
1.99e-008,-111.07523,43.169277
1.991e-008,-110.82676,60.00462
1.992e-008,-110.61079,77.003067
1.993e-008,-110.42716,94.151123
1.994e-008,-110.27693,111.437
1.995e-008,-110.16051,128.85495
1.996e-008,-110.07907,146.40114
1.997e-008,-110.03372,164.08028
1.998e-008,-110.02593,-178.10146
1.999e-008,-110.05693,-160.1288
2e-008,-110.12862,-141.98267
END

