!CSV A.01.01
!Keysight Technologies,N5227B,US58420762,A.13.80.08
!Date: Monday, November 20, 2023 16:09:39
!Source: Standard

BEGIN CH1_DATA
Freq(Hz),S21(DB),S21(DEG)
3000000000,-55.822315,-176.56689
3003000000,-55.694008,170.4567
3006000000,-55.589554,156.45207
3009000000,-55.31274,141.66397
3012000000,-55.35812,125.76885
3015000000,-55.519295,110.11539
3018000000,-55.734032,96.206612
3021000000,-55.682785,83.684029
3024000000,-55.729691,69.407875
3027000000,-55.541065,55.077305
3030000000,-55.371944,40.89193
3033000000,-55.282249,26.512997
3036000000,-55.126183,11.336169
3039000000,-55.067963,-4.2150483
3042000000,-55.161125,-18.942749
3045000000,-55.103558,-33.12249
3048000000,-54.970257,-48.290466
3051000000,-54.951195,-62.263294
3054000000,-54.68285,-78.854927
3057000000,-54.638405,-93.85759
3060000000,-54.855579,-109.74618
3063000000,-54.917751,-123.89698
3066000000,-55.016045,-139.576
3069000000,-55.105137,-153.44032
3072000000,-55.089725,-168.12854
3075000000,-54.952171,177.31888
3078000000,-54.996929,162.79102
3081000000,-55.203159,147.37601
3084000000,-55.1511,132.69492
3087000000,-55.184483,118.18694
3090000000,-55.271282,104.73519
3093000000,-55.173889,90.870796
3096000000,-54.890255,76.371429
3099000000,-54.737782,61.538303
3102000000,-54.734867,45.869045
3105000000,-54.585159,29.66853
3108000000,-54.681015,14.419122
3111000000,-54.787514,-1.7002425
3114000000,-54.97826,-16.492632
3117000000,-55.096527,-31.134918
3120000000,-55.152641,-45.521309
3123000000,-55.21323,-59.420422
3126000000,-55.13253,-74.538918
3129000000,-55.393421,-89.783302
3132000000,-55.519016,-103.81863
3135000000,-55.44746,-117.44696
3138000000,-55.371334,-130.33095
3141000000,-55.263641,-144.80968
3144000000,-55.153191,-160.12805
3147000000,-55.040565,-175.89928
3150000000,-55.079258,169.39066
3153000000,-55.12912,153.83681
3156000000,-55.349205,139.24733
3159000000,-55.393448,126.00959
3162000000,-55.471268,111.95992
3165000000,-55.332752,97.235527
3168000000,-55.13586,82.439926
3171000000,-55.056561,67.350349
3174000000,-55.201584,52.143948
3177000000,-55.214123,37.151669
3180000000,-55.276424,22.403503
3183000000,-55.43499,8.1334038
3186000000,-55.289246,-5.0859337
3189000000,-55.053631,-20.618279
3192000000,-55.082893,-36.007721
3195000000,-55.173458,-52.894485
3198000000,-55.355949,-66.852036
3201000000,-55.517914,-81.829971
3204000000,-55.569809,-94.119064
3207000000,-55.661869,-109.2103
3210000000,-55.62925,-123.27976
3213000000,-55.619987,-137.89586
3216000000,-55.445129,-151.9155
3219000000,-55.503681,-166.77367
3222000000,-55.644447,179.31433
3225000000,-55.594467,164.57729
3228000000,-55.495018,151.39928
3231000000,-55.336399,136.52324
3234000000,-55.083546,121.13789
3237000000,-55.050068,104.8018
3240000000,-55.078842,89.488449
3243000000,-55.04697,72.643875
3246000000,-55.364449,57.903988
3249000000,-55.55867,43.338734
3252000000,-55.627213,29.920061
3255000000,-55.553696,14.719393
3258000000,-55.789902,-0.21516332
3261000000,-55.893642,-15.241967
3264000000,-56.135216,-28.813847
3267000000,-56.249725,-42.607861
3270000000,-56.345516,-54.755329
3273000000,-56.425575,-68.21743
3276000000,-56.010246,-81.743416
3279000000,-55.941425,-94.804817
3282000000,-55.660339,-111.51906
3285000000,-55.677746,-127.10444
3288000000,-55.77422,-140.25423
3291000000,-55.674957,-155.58687
3294000000,-55.543732,-169.37434
3297000000,-55.477108,175.67638
3300000000,-55.423889,160.91029
3303000000,-55.280346,145.96107
3306000000,-55.335678,130.51765
3309000000,-55.302849,115.37162
3312000000,-55.485706,99.812523
3315000000,-55.5336,85.172829
3318000000,-55.659145,72.02446
3321000000,-55.616566,57.366261
3324000000,-55.439903,43.192486
3327000000,-55.351234,28.097881
3330000000,-55.196114,12.136146
3333000000,-55.318455,-3.8753312
3336000000,-55.445702,-18.917137
3339000000,-55.82106,-33.069809
3342000000,-55.725681,-45.569237
3345000000,-55.580254,-59.847977
3348000000,-55.411987,-76.676605
3351000000,-55.521591,-92.295059
3354000000,-55.682831,-106.73209
3357000000,-55.94067,-121.42249
3360000000,-56.022671,-135.82835
3363000000,-56.062935,-149.96606
3366000000,-56.205193,-162.40315
3369000000,-55.877041,-177.33797
3372000000,-55.708015,166.1601
3375000000,-55.752121,149.53004
3378000000,-55.992607,135.83597
3381000000,-56.333218,121.72486
3384000000,-56.486122,106.69264
3387000000,-56.412968,94.55114
3390000000,-56.624416,79.814972
3393000000,-56.525974,66.672607
3396000000,-56.599499,52.062054
3399000000,-56.799156,37.433201
3402000000,-56.908367,23.601227
3405000000,-57.22414,11.84375
3408000000,-56.982746,-1.428472
3411000000,-56.688168,-13.549849
3414000000,-56.329323,-28.459291
3417000000,-56.039921,-43.331173
3420000000,-56.116001,-58.353935
3423000000,-56.059155,-74.015984
3426000000,-56.109604,-89.989075
3429000000,-56.340733,-103.2905
3432000000,-56.379364,-116.52007
3435000000,-56.404995,-129.66403
3438000000,-56.251122,-143.96463
3441000000,-55.975353,-158.15549
3444000000,-56.07592,-172.33333
3447000000,-55.863918,173.79085
3450000000,-55.851364,160.17435
3453000000,-55.875729,146.83513
3456000000,-55.752155,132.76802
3459000000,-55.264206,119.02651
3462000000,-54.97258,103.15937
3465000000,-54.633373,87.73111
3468000000,-54.488388,71.198105
3471000000,-54.543175,55.448914
3474000000,-54.635059,38.931393
3477000000,-54.848709,24.692619
3480000000,-54.576496,10.050086
3483000000,-54.607994,-3.7518628
3486000000,-54.437698,-19.508572
3489000000,-54.314789,-35.232346
3492000000,-54.389652,-50.782291
3495000000,-54.278702,-66.813675
3498000000,-54.493656,-81.635178
3501000000,-54.500645,-95.874634
3504000000,-54.603676,-110.74402
3507000000,-54.637657,-126.2104
3510000000,-54.315212,-139.88493
3513000000,-54.192673,-156.29797
3516000000,-54.356106,-172.48959
3519000000,-54.43898,171.94728
3522000000,-54.71854,156.33078
3525000000,-54.734818,143.11365
3528000000,-54.659637,128.18825
3531000000,-54.815445,113.53857
3534000000,-54.946716,97.30323
3537000000,-55.08485,82.961075
3540000000,-55.155762,68.458763
3543000000,-55.339596,53.633282
3546000000,-55.322136,40.414036
3549000000,-55.499176,26.643944
3552000000,-55.37344,12.063425
3555000000,-55.365231,-2.4611473
3558000000,-55.283615,-17.702074
3561000000,-55.404053,-33.157112
3564000000,-55.739571,-46.167217
3567000000,-55.900883,-61.487213
3570000000,-55.951641,-73.887573
3573000000,-55.690956,-86.946831
3576000000,-55.706093,-100.76083
3579000000,-55.399296,-115.31049
3582000000,-55.315784,-129.64021
3585000000,-55.49865,-145.93758
3588000000,-55.733688,-160.84061
3591000000,-55.665749,-175.73599
3594000000,-55.60461,171.93553
3597000000,-55.634418,158.14838
3600000000,-55.624397,143.77315
3603000000,-55.436214,129.33517
3606000000,-55.407124,114.5054
3609000000,-55.435879,100.58244
3612000000,-55.372776,86.037308
3615000000,-55.170361,73.278618
3618000000,-54.910877,59.396206
3621000000,-54.772995,44.396675
3624000000,-54.616051,29.190012
3627000000,-54.592186,12.056365
3630000000,-54.514214,-3.3896689
3633000000,-54.709133,-18.103161
3636000000,-54.74411,-32.522308
3639000000,-54.835247,-45.435425
3642000000,-54.567524,-60.52734
3645000000,-54.39378,-75.390526
3648000000,-54.408325,-91.732773
3651000000,-54.323517,-106.7051
3654000000,-54.328854,-122.66935
3657000000,-54.536594,-137.6929
3660000000,-54.632141,-151.57339
3663000000,-54.685688,-165.62941
3666000000,-54.579189,178.91875
3669000000,-54.46891,163.74159
3672000000,-54.43174,148.43155
3675000000,-54.641674,134.03857
3678000000,-54.908535,119.17719
3681000000,-54.848076,105.57656
3684000000,-54.844498,91.390648
3687000000,-54.710178,78.477585
3690000000,-54.616856,62.606682
3693000000,-54.481239,47.324242
3696000000,-54.38163,30.816509
3699000000,-54.44371,15.559004
3702000000,-54.690624,1.296253
3705000000,-54.631561,-12.608006
3708000000,-54.651711,-27.084871
3711000000,-54.487309,-42.496029
3714000000,-54.55574,-58.603611
3717000000,-54.611202,-74.115295
3720000000,-54.705521,-89.206879
3723000000,-54.856766,-103.76523
3726000000,-55.100269,-119.36331
3729000000,-55.560398,-132.00031
3732000000,-55.418957,-145.14029
3735000000,-55.384792,-159.32471
3738000000,-55.362942,-171.94347
3741000000,-55.32032,173.11572
3744000000,-55.266144,160.20612
3747000000,-55.218456,144.98528
3750000000,-55.078232,131.76294
3753000000,-55.042488,116.53082
3756000000,-54.878296,101.49279
3759000000,-54.783241,86.48288
3762000000,-54.761623,70.754128
3765000000,-54.643177,56.341148
3768000000,-54.815514,41.296753
3771000000,-54.976055,26.616135
3774000000,-54.868729,12.252168
3777000000,-54.870464,-0.24176367
3780000000,-54.782093,-15.117034
3783000000,-54.624031,-29.943874
3786000000,-54.556725,-45.1628
3789000000,-54.613018,-60.745171
3792000000,-54.752235,-74.323509
3795000000,-54.739353,-87.872635
3798000000,-54.645275,-103.8576
3801000000,-54.525505,-117.98244
3804000000,-54.445824,-132.56898
3807000000,-54.524868,-146.79497
3810000000,-54.427368,-161.90146
3813000000,-54.346371,-176.95609
3816000000,-54.306984,168.89893
3819000000,-54.170708,154.99086
3822000000,-54.092438,139.54095
3825000000,-53.993305,125.52452
3828000000,-53.785946,108.98529
3831000000,-53.91576,94.219254
3834000000,-53.745972,79.116196
3837000000,-53.773991,62.80566
3840000000,-53.915089,48.052814
3843000000,-53.872372,33.216206
3846000000,-53.627113,17.452063
3849000000,-53.60759,2.1190977
3852000000,-53.640869,-13.898459
3855000000,-53.683132,-30.303234
3858000000,-53.950569,-45.81612
3861000000,-54.249405,-60.7094
3864000000,-54.390896,-74.07325
3867000000,-54.405666,-88.1399
3870000000,-54.641674,-102.50653
3873000000,-54.475834,-116.11713
3876000000,-54.273445,-131.51671
3879000000,-54.35358,-146.27124
3882000000,-54.422195,-160.55478
3885000000,-54.438835,-175.62727
3888000000,-54.381271,169.21341
3891000000,-54.414288,155.19193
3894000000,-54.228443,139.12181
3897000000,-54.362919,124.82639
3900000000,-54.294636,108.82516
3903000000,-54.306587,92.998329
3906000000,-54.536007,78.063477
3909000000,-54.770596,63.519844
3912000000,-54.826046,50.473373
3915000000,-54.980328,35.30764
3918000000,-55.038185,21.397213
3921000000,-54.861732,6.9267673
3924000000,-54.796059,-7.9968972
3927000000,-55.101646,-24.414553
3930000000,-55.135353,-38.832287
3933000000,-55.393738,-51.292248
3936000000,-55.32119,-63.517311
3939000000,-54.929436,-77.51017
3942000000,-54.865673,-92.926208
3945000000,-54.762321,-108.46336
3948000000,-54.885258,-123.38539
3951000000,-54.878281,-137.69276
3954000000,-54.850426,-154.2347
3957000000,-54.964397,-168.51753
3960000000,-55.046188,175.67607
3963000000,-54.92646,163.77722
3966000000,-54.884392,148.13989
3969000000,-54.786942,130.76622
3972000000,-55.014675,116.8953
3975000000,-55.400127,102.13576
3978000000,-55.546314,87.827995
3981000000,-55.390003,75.366608
3984000000,-55.236927,61.112812
3987000000,-55.190201,45.293182
3990000000,-55.044697,31.186201
3993000000,-54.954075,16.056705
3996000000,-55.156162,0.240955
3999000000,-55.247791,-14.683518
4002000000,-55.144798,-29.526546
4005000000,-55.282597,-43.009541
4008000000,-55.308826,-58.410896
4011000000,-55.140167,-70.765709
4014000000,-55.186871,-87.00737
4017000000,-55.227856,-103.52927
4020000000,-55.25951,-118.27689
4023000000,-55.499619,-133.11401
4026000000,-55.585659,-147.51189
4029000000,-55.438908,-162.17702
4032000000,-55.430576,-177.4825
4035000000,-55.720997,167.59105
4038000000,-55.952885,151.08743
4041000000,-55.823803,138.63696
4044000000,-55.984959,123.88711
4047000000,-56.179024,109.23759
4050000000,-56.214779,96.012199
4053000000,-56.211143,83.020187
4056000000,-56.031956,69.407509
4059000000,-56.036812,53.937698
4062000000,-56.086441,38.481445
4065000000,-56.399464,24.172728
4068000000,-56.215256,11.052233
4071000000,-56.229382,-3.9161313
4074000000,-55.853127,-18.204508
4077000000,-56.002995,-32.489658
4080000000,-56.103809,-47.853172
4083000000,-55.97179,-62.994377
4086000000,-55.882591,-75.977745
4089000000,-56.00666,-92.753937
4092000000,-56.078743,-105.87484
4095000000,-55.871754,-119.66796
4098000000,-55.904541,-136.1443
4101000000,-55.90744,-150.74492
4104000000,-56.129223,-165.53015
4107000000,-56.217785,179.2516
4110000000,-56.371189,166.3748
4113000000,-56.139603,152.13235
4116000000,-56.077194,137.61876
4119000000,-56.194817,123.76794
4122000000,-56.012848,108.96543
4125000000,-56.150845,93.931465
4128000000,-55.955063,77.762459
4131000000,-56.384007,64.239082
4134000000,-56.393051,51.352375
4137000000,-56.396709,37.19627
4140000000,-56.18227,21.502148
4143000000,-56.023773,7.4802432
4146000000,-55.87952,-8.6669283
4149000000,-55.956436,-24.510742
4152000000,-56.289452,-38.496086
4155000000,-56.314846,-50.488129
4158000000,-56.223537,-65.713814
4161000000,-55.993389,-79.426506
4164000000,-55.629917,-95.289909
4167000000,-55.841091,-112.62463
4170000000,-55.987476,-128.77692
4173000000,-56.126202,-142.79993
4176000000,-56.393703,-157.84526
4179000000,-56.497726,-172.0455
4182000000,-56.49979,176.54401
4185000000,-56.414742,162.20515
4188000000,-56.076954,147.92392
4191000000,-56.009937,130.21445
4194000000,-56.130165,115.22125
4197000000,-56.329212,100.87742
4200000000,-56.392838,86.184959
4203000000,-56.505596,71.45121
4206000000,-56.441341,58.077705
4209000000,-56.543621,44.380562
4212000000,-56.126884,28.684414
4215000000,-56.261696,12.179381
4218000000,-56.487492,-4.7087231
4221000000,-56.767422,-19.101334
4224000000,-57.124851,-31.091906
4227000000,-56.945328,-44.442574
4230000000,-57.08334,-58.249706
4233000000,-56.902782,-74.52198
4236000000,-56.921646,-88.509796
4239000000,-56.944084,-103.341
4242000000,-57.019485,-117.59377
4245000000,-57.138393,-131.18109
4248000000,-57.12569,-145.35033
4251000000,-56.987686,-158.57036
4254000000,-56.77784,-174.01962
4257000000,-56.584656,171.62659
4260000000,-56.629898,155.0753
4263000000,-56.66861,140.54987
4266000000,-56.757267,124.87798
4269000000,-57.147621,111.79742
4272000000,-57.200691,98.0009
4275000000,-56.960804,84.374001
4278000000,-56.899731,70.71109
4281000000,-57.176945,54.311661
4284000000,-57.049797,41.061832
4287000000,-56.900944,26.07305
4290000000,-57.267025,12.296677
4293000000,-57.11195,-1.2289399
4296000000,-57.213573,-14.003071
4299000000,-56.757099,-27.643091
4302000000,-56.463398,-43.46904
4305000000,-56.373604,-58.330772
4308000000,-56.271473,-74.265869
4311000000,-56.411213,-89.583611
4314000000,-56.617424,-103.4195
4317000000,-56.287636,-118.88101
4320000000,-56.332127,-134.79062
4323000000,-56.363972,-148.76413
4326000000,-56.383457,-163.73886
4329000000,-56.072124,178.82675
4332000000,-56.375664,163.06693
4335000000,-56.696888,147.96046
4338000000,-57.170494,134.55226
4341000000,-57.297119,122.43374
4344000000,-57.277866,108.75082
4347000000,-57.156048,95.760254
4350000000,-56.671833,81.457436
4353000000,-56.683372,66.393295
4356000000,-56.43597,50.832882
4359000000,-56.473835,35.237972
4362000000,-56.560215,20.842911
4365000000,-56.750134,7.1045637
4368000000,-56.530682,-6.2379227
4371000000,-56.300938,-21.952751
4374000000,-56.506325,-37.113167
4377000000,-56.501232,-54.127369
4380000000,-56.672077,-67.443665
4383000000,-56.497601,-82.866112
4386000000,-56.522121,-98.419662
4389000000,-56.74728,-110.73886
4392000000,-56.656593,-123.75322
4395000000,-56.488182,-138.64873
4398000000,-56.453602,-153.963
4401000000,-56.306686,-169.41451
4404000000,-56.449543,175.06128
4407000000,-56.225124,161.2579
4410000000,-56.235043,145.8784
4413000000,-56.266323,132.2278
4416000000,-56.362347,117.16344
4419000000,-56.175922,103.18752
4422000000,-56.109207,85.881416
4425000000,-56.038082,70.570534
4428000000,-56.423721,55.265324
4431000000,-56.449146,40.845951
4434000000,-56.44651,26.045324
4437000000,-56.353859,11.038336
4440000000,-56.59322,-2.3978016
4443000000,-56.502464,-16.170792
4446000000,-56.32951,-31.579124
4449000000,-56.046474,-47.615135
4452000000,-56.294109,-64.194336
4455000000,-56.485382,-76.460991
4458000000,-56.411888,-92.684059
4461000000,-56.433014,-107.97997
4464000000,-56.598713,-122.8074
4467000000,-56.611443,-137.19861
4470000000,-56.801739,-152.96536
4473000000,-56.829372,-169.12996
4476000000,-57.341534,177.36389
4479000000,-57.327045,165.26852
4482000000,-57.518448,150.82552
4485000000,-57.321663,136.32137
4488000000,-57.025539,122.55863
4491000000,-57.509586,106.58414
4494000000,-57.199039,93.366577
4497000000,-57.298077,78.51796
4500000000,-57.189133,63.196865
4503000000,-57.399681,49.325611
4506000000,-57.551701,37.138805
4509000000,-57.294277,20.755171
4512000000,-57.095634,6.3227654
4515000000,-57.261116,-7.6074452
4518000000,-57.251587,-23.651096
4521000000,-57.279694,-35.203575
4524000000,-57.204792,-49.945629
4527000000,-57.351101,-66.27047
4530000000,-57.109913,-79.549461
4533000000,-57.260826,-93.141792
4536000000,-56.96143,-108.08523
4539000000,-56.977425,-123.21324
4542000000,-56.739426,-138.6713
4545000000,-57.046406,-152.9857
4548000000,-56.554276,-167.39966
4551000000,-56.912167,176.63068
4554000000,-56.670673,161.9682
4557000000,-56.713085,146.19861
4560000000,-56.853436,132.49376
4563000000,-56.795422,117.45353
4566000000,-56.736485,102.0499
4569000000,-56.890617,86.602295
4572000000,-56.862827,73.199539
4575000000,-56.531101,58.603405
4578000000,-56.742325,42.700447
4581000000,-56.688805,28.130541
4584000000,-56.864143,10.881248
4587000000,-56.759712,-1.8548399
4590000000,-56.735756,-13.943899
4593000000,-56.609737,-31.84671
4596000000,-56.772408,-46.132698
4599000000,-56.746151,-61.892361
4602000000,-56.552605,-78.331245
4605000000,-56.794899,-91.682228
4608000000,-57.077736,-107.02123
4611000000,-57.355148,-122.43606
4614000000,-57.109051,-136.8577
4617000000,-57.405235,-150.39844
4620000000,-57.12825,-167.11407
4623000000,-57.445866,178.92778
4626000000,-57.465389,165.98299
4629000000,-57.413021,151.30672
4632000000,-57.434845,135.34744
4635000000,-57.987827,120.55782
4638000000,-57.625801,108.44782
4641000000,-57.771397,93.802841
4644000000,-57.580505,77.623451
4647000000,-57.639954,64.396271
4650000000,-57.985371,48.938892
4653000000,-57.657402,37.05582
4656000000,-57.72353,20.847378
4659000000,-57.785133,7.3524885
4662000000,-57.94125,-6.2977314
4665000000,-57.528362,-19.918247
4668000000,-57.550533,-34.511379
4671000000,-57.346844,-51.031063
4674000000,-57.34594,-66.807762
4677000000,-57.46804,-81.890297
4680000000,-57.554386,-95.838432
4683000000,-57.594349,-110.98299
4686000000,-57.77198,-124.39973
4689000000,-57.54237,-138.54295
4692000000,-57.580223,-154.35393
4695000000,-57.810635,-167.78049
4698000000,-57.739033,174.19034
4701000000,-57.70475,160.75467
4704000000,-58.091446,148.23611
4707000000,-57.930847,135.33208
4710000000,-57.699207,121.17519
4713000000,-57.451603,108.75547
4716000000,-57.095188,94.267616
4719000000,-57.019127,77.079498
4722000000,-57.023808,59.507565
4725000000,-57.123798,44.12389
4728000000,-57.195545,29.515778
4731000000,-57.077637,15.703078
4734000000,-56.996529,0.93285346
4737000000,-57.109364,-15.569323
4740000000,-57.055038,-30.91345
4743000000,-56.914326,-46.522335
4746000000,-57.096729,-62.992424
4749000000,-57.435253,-79.673187
4752000000,-57.657867,-92.305
4755000000,-57.872932,-104.49243
4758000000,-57.663479,-119.02692
4761000000,-57.494091,-133.00304
4764000000,-57.6861,-149.98616
4767000000,-57.799061,-163.05042
4770000000,-57.615425,-179.30902
4773000000,-57.948929,167.74121
4776000000,-57.905899,152.40028
4779000000,-57.877262,139.31171
4782000000,-57.658451,126.54478
4785000000,-57.472919,110.01662
4788000000,-57.337341,94.202728
4791000000,-57.665276,78.975258
4794000000,-57.683014,63.508022
4797000000,-57.724804,50.05587
4800000000,-57.657482,36.155594
4803000000,-57.871407,21.974873
4806000000,-57.399982,8.7379599
4809000000,-57.311832,-7.7794967
4812000000,-57.383881,-23.706903
4815000000,-57.579575,-41.587173
4818000000,-57.648064,-57.781776
4821000000,-57.738049,-70.401741
4824000000,-58.036392,-84.733894
4827000000,-58.174732,-99.470589
4830000000,-58.053631,-114.34328
4833000000,-57.958866,-129.1655
4836000000,-57.965458,-143.76875
4839000000,-58.301563,-158.21432
4842000000,-58.748844,-171.27812
4845000000,-58.536098,174.8131
4848000000,-58.325027,163.41222
4851000000,-58.142216,146.74187
4854000000,-57.97197,132.42549
4857000000,-57.733238,116.46191
4860000000,-57.911827,101.12985
4863000000,-57.82972,85.337585
4866000000,-57.915222,69.195297
4869000000,-58.156502,56.326469
4872000000,-58.20565,40.336185
4875000000,-58.106789,25.788559
4878000000,-57.99424,10.374957
4881000000,-58.402561,-4.315474
4884000000,-58.502766,-20.147461
4887000000,-58.757126,-34.126038
4890000000,-58.465965,-46.779198
4893000000,-58.967194,-59.741413
4896000000,-58.660809,-76.033401
4899000000,-58.950645,-89.108612
4902000000,-58.623226,-104.00961
4905000000,-58.825825,-118.092
4908000000,-59.141109,-133.26404
4911000000,-58.78009,-144.93156
4914000000,-58.678467,-159.79546
4917000000,-58.642204,-175.17174
4920000000,-58.797932,168.96053
4923000000,-58.830128,155.01013
4926000000,-58.682819,139.56998
4929000000,-58.531441,124.71486
4932000000,-58.839184,108.88783
4935000000,-59.029625,94.398499
4938000000,-58.8825,79.959785
4941000000,-58.710869,66.581688
4944000000,-58.774063,51.239517
4947000000,-58.911724,38.317108
4950000000,-58.829369,23.525766
4953000000,-58.595043,8.5360327
4956000000,-58.860752,-5.4810991
4959000000,-58.943203,-20.214302
4962000000,-58.476212,-34.656391
4965000000,-58.841885,-51.82626
4968000000,-58.912365,-64.529091
4971000000,-58.754967,-81.306641
4974000000,-58.843594,-94.334213
4977000000,-58.969425,-109.13565
4980000000,-58.815369,-123.83018
4983000000,-58.818779,-139.14035
4986000000,-59.222282,-152.85786
4989000000,-58.87495,-168.45413
4992000000,-58.721863,177.8911
4995000000,-58.505608,163.24374
4998000000,-58.57933,148.00577
5001000000,-59.059746,134.00418
5004000000,-58.4534,118.38853
5007000000,-58.683331,101.97462
5010000000,-58.515423,87.198326
5013000000,-58.758873,71.850517
5016000000,-58.627754,57.599144
5019000000,-59.114517,43.442387
5022000000,-59.077217,29.066778
5025000000,-58.987152,13.851856
5028000000,-59.372814,-0.48254141
5031000000,-59.102886,-13.090877
5034000000,-59.039097,-27.947901
5037000000,-58.760216,-42.919891
5040000000,-59.111465,-57.456951
5043000000,-59.047485,-72.246574
5046000000,-58.996811,-85.86441
5049000000,-59.106049,-102.25383
5052000000,-58.686878,-117.71799
5055000000,-58.376335,-130.23018
5058000000,-58.49469,-146.2597
5061000000,-58.92675,-162.22447
5064000000,-59.03397,-176.50516
5067000000,-59.063553,166.72836
5070000000,-59.044842,152.78523
5073000000,-59.14278,137.04564
5076000000,-59.231255,124.23605
5079000000,-59.160053,107.14403
5082000000,-59.48201,94.815468
5085000000,-59.521763,78.622826
5088000000,-59.76812,64.404915
5091000000,-59.858025,49.941643
5094000000,-59.568756,35.004391
5097000000,-59.812943,24.473919
5100000000,-59.877563,6.6191592
5103000000,-59.864414,-3.935982
5106000000,-59.636913,-21.535091
5109000000,-59.56686,-39.046062
5112000000,-59.697468,-53.098949
5115000000,-59.799549,-67.347382
5118000000,-59.634243,-79.511246
5121000000,-59.726501,-95.911064
5124000000,-59.815876,-110.66675
5127000000,-59.62236,-123.09207
5130000000,-59.46748,-140.63042
5133000000,-59.595337,-154.08539
5136000000,-59.576511,-170.50923
5139000000,-59.662334,172.63861
5142000000,-59.978691,159.80421
5145000000,-60.324738,146.47078
5148000000,-60.03812,133.8394
5151000000,-60.121662,116.3255
5154000000,-60.185619,103.83764
5157000000,-60.179985,89.810295
5160000000,-60.05315,71.963982
5163000000,-60.333714,60.208881
5166000000,-59.947788,45.49485
5169000000,-60.359364,33.598801
5172000000,-59.819504,19.562645
5175000000,-59.584583,0.94352734
5178000000,-60.274303,-12.33569
5181000000,-60.286007,-26.582733
5184000000,-60.372196,-43.092133
5187000000,-60.197392,-56.536766
5190000000,-60.018326,-69.897354
5193000000,-60.379879,-82.271446
5196000000,-60.084682,-97.488945
5199000000,-59.969658,-111.42116
5202000000,-59.883442,-129.7916
5205000000,-60.235252,-142.44725
5208000000,-60.500469,-159.47861
5211000000,-60.733929,-171.50598
5214000000,-60.620701,173.95132
5217000000,-60.242504,160.35764
5220000000,-60.355892,145.66447
5223000000,-60.251415,131.6669
5226000000,-60.254913,115.77411
5229000000,-60.287514,98.127983
5232000000,-60.620869,88.18325
5235000000,-60.532097,75.276306
5238000000,-60.266701,60.669949
5241000000,-59.641289,47.779488
5244000000,-59.583618,32.824711
5247000000,-59.701923,14.748336
5250000000,-59.679092,0.14372332
5253000000,-59.762043,-14.732099
5256000000,-59.510094,-31.22168
5259000000,-59.988869,-44.462048
5262000000,-59.84927,-60.757751
5265000000,-59.429447,-74.691872
5268000000,-59.656071,-88.761452
5271000000,-59.698986,-104.98015
5274000000,-59.299744,-120.67897
5277000000,-59.504715,-136.05299
5280000000,-59.933746,-149.93799
5283000000,-59.929081,-163.92204
5286000000,-59.66679,-179.53671
5289000000,-59.738968,166.64574
5292000000,-59.306087,150.2128
5295000000,-59.842037,133.69847
5298000000,-59.900272,119.30029
5301000000,-59.70879,104.60786
5304000000,-60.152191,91.074669
5307000000,-59.893356,74.284035
5310000000,-59.89719,61.881596
5313000000,-59.48101,45.503506
5316000000,-59.694897,31.698748
5319000000,-59.398647,16.231464
5322000000,-59.440353,1.3955684
5325000000,-59.750935,-14.995601
5328000000,-59.711796,-27.708553
5331000000,-59.675938,-44.929741
5334000000,-59.800362,-58.892952
5337000000,-60.332039,-75.949387
5340000000,-60.038658,-93.975044
5343000000,-60.516029,-107.61922
5346000000,-60.748177,-124.15628
5349000000,-61.409206,-135.12292
5352000000,-61.62167,-148.79907
5355000000,-61.212761,-158.43201
5358000000,-61.511284,-175.57202
5361000000,-61.18045,172.99384
5364000000,-61.272285,158.11905
5367000000,-61.216576,145.50938
5370000000,-61.429188,128.46809
5373000000,-62.091339,115.4251
5376000000,-61.534794,102.37543
5379000000,-61.109039,88.218605
5382000000,-61.196194,76.555031
5385000000,-61.075947,60.561657
5388000000,-61.04623,48.353203
5391000000,-60.519646,31.760311
5394000000,-60.690487,15.94103
5397000000,-60.519287,2.7175937
5400000000,-60.461136,-13.973283
5403000000,-60.259918,-26.062769
5406000000,-60.772522,-45.965424
5409000000,-60.408535,-59.817123
5412000000,-60.169514,-72.38678
5415000000,-60.186001,-84.59359
5418000000,-59.814503,-103.40231
5421000000,-59.961079,-116.76167
5424000000,-60.14468,-133.9348
5427000000,-59.709637,-145.06009
5430000000,-60.016827,-161.42729
5433000000,-60.31181,-175.78087
5436000000,-60.262913,169.76073
5439000000,-59.775871,154.76297
5442000000,-59.410812,139.92744
5445000000,-59.287636,121.20861
5448000000,-59.827282,106.43137
5451000000,-59.904778,92.43644
5454000000,-59.526463,79.158302
5457000000,-59.922234,63.149975
5460000000,-59.432724,45.87851
5463000000,-59.983978,28.122084
5466000000,-59.68623,13.628916
5469000000,-60.013374,-1.8425033
5472000000,-59.894871,-14.881855
5475000000,-60.527889,-34.217079
5478000000,-60.810181,-45.361637
5481000000,-60.644524,-60.326389
5484000000,-61.13625,-73.521576
5487000000,-61.336399,-88.879303
5490000000,-60.855595,-102.87716
5493000000,-60.753429,-120.49728
5496000000,-61.368061,-132.21704
5499000000,-61.756119,-150.58025
5502000000,-62.00301,-157.74562
5505000000,-61.594131,-174.53708
5508000000,-61.298767,173.68063
5511000000,-61.428238,158.68573
5514000000,-60.968491,143.51685
5517000000,-61.550842,128.90216
5520000000,-61.534393,111.32593
5523000000,-61.710522,97.843582
5526000000,-61.851669,84.970016
5529000000,-61.575268,67.978104
5532000000,-61.11343,55.724968
5535000000,-61.709225,39.820938
5538000000,-61.512253,27.631737
5541000000,-62.013161,9.5275288
5544000000,-62.10107,-2.4364831
5547000000,-61.610096,-19.035604
5550000000,-62.151623,-32.1106
5553000000,-61.433701,-42.40815
5556000000,-61.003124,-56.817257
5559000000,-60.57061,-73.884064
5562000000,-60.765488,-91.668175
5565000000,-60.813129,-106.71092
5568000000,-61.41396,-119.69259
5571000000,-61.312164,-134.79916
5574000000,-61.00436,-149.53217
5577000000,-61.242702,-163.7756
5580000000,-60.659496,179.98653
5583000000,-60.46912,165.11722
5586000000,-60.24622,149.838
5589000000,-60.490479,133.82745
5592000000,-60.597916,117.22569
5595000000,-61.018608,106.96228
5598000000,-60.72113,89.25206
5601000000,-60.94577,71.83596
5604000000,-61.500996,58.46616
5607000000,-61.525131,44.893539
5610000000,-61.392262,27.579054
5613000000,-61.157864,12.371568
5616000000,-61.557327,-0.64160949
5619000000,-61.832912,-14.312334
5622000000,-62.014805,-29.112818
5625000000,-61.326767,-44.164047
5628000000,-61.519459,-62.03299
5631000000,-61.132675,-71.748779
5634000000,-61.843811,-89.309044
5637000000,-62.144657,-102.81189
5640000000,-62.644833,-119.93906
5643000000,-61.650223,-133.14769
5646000000,-62.681572,-141.63199
5649000000,-62.214825,-162.04343
5652000000,-62.332047,-178.92313
5655000000,-62.378975,168.96326
5658000000,-61.790009,155.62393
5661000000,-62.675751,137.61992
5664000000,-63.016308,122.03597
5667000000,-62.980312,107.93137
5670000000,-62.001526,96.289391
5673000000,-62.611435,81.21711
5676000000,-62.409374,66.817528
5679000000,-62.250706,50.980701
5682000000,-62.835087,33.578728
5685000000,-63.118271,23.098413
5688000000,-63.239769,9.1246424
5691000000,-63.570538,-3.908087
5694000000,-62.665134,-17.071663
5697000000,-63.175915,-29.320192
5700000000,-62.336517,-45.711239
5703000000,-62.776165,-60.27422
5706000000,-62.714958,-78.507271
5709000000,-62.401306,-96.077827
5712000000,-62.789261,-104.29935
5715000000,-62.890205,-119.86935
5718000000,-62.858624,-136.86627
5721000000,-63.094917,-152.62512
5724000000,-62.448715,-165.38416
5727000000,-63.136566,179.23863
5730000000,-62.970509,161.76869
5733000000,-63.910168,151.26384
5736000000,-63.31345,129.73849
5739000000,-63.307911,120.01189
5742000000,-63.584229,106.76503
5745000000,-64.210197,88.878387
5748000000,-64.033005,78.477798
5751000000,-64.165443,63.420773
5754000000,-64.009438,51.065948
5757000000,-63.777309,35.253735
5760000000,-64.033493,23.874102
5763000000,-64.283882,5.9297061
5766000000,-63.631199,-11.460785
5769000000,-63.799129,-24.592278
5772000000,-63.795887,-37.771072
5775000000,-63.77449,-47.709213
5778000000,-63.770367,-66.907516
5781000000,-64.023834,-76.717224
5784000000,-63.621475,-96.345596
5787000000,-64.54171,-108.77354
5790000000,-63.942726,-126.19277
5793000000,-63.918636,-135.80095
5796000000,-63.659821,-153.69969
5799000000,-64.021759,-170.93541
5802000000,-64.897499,179.80577
5805000000,-65.177086,163.14424
5808000000,-64.668823,148.04427
5811000000,-63.924019,135.21291
5814000000,-63.882412,119.84219
5817000000,-64.136909,105.969
5820000000,-64.655006,93.365311
5823000000,-63.977394,77.2444
5826000000,-63.929455,58.100964
5829000000,-64.147247,50.694851
5832000000,-64.368027,29.735844
5835000000,-64.63755,18.991068
5838000000,-63.959389,10.392094
5841000000,-63.721447,-12.211047
5844000000,-62.941376,-23.631124
5847000000,-63.948792,-44.046349
5850000000,-63.815987,-57.061333
5853000000,-64.127914,-77.249268
5856000000,-64.442047,-86.905205
5859000000,-65.089981,-96.31366
5862000000,-64.789467,-113.01975
5865000000,-65.230667,-129.22426
5868000000,-64.758728,-145.05844
5871000000,-64.579216,-157.06798
5874000000,-64.057663,-169.79517
5877000000,-64.438416,174.64702
5880000000,-64.712036,161.75124
5883000000,-64.302742,148.10866
5886000000,-64.359207,133.28499
5889000000,-64.945351,114.15675
5892000000,-64.226593,107.12833
5895000000,-64.4589,94.639313
5898000000,-64.09803,77.950409
5901000000,-64.993355,59.628029
5904000000,-64.412987,43.223557
5907000000,-65.129128,31.976719
5910000000,-64.325996,16.34119
5913000000,-63.70306,1.2519631
5916000000,-64.427986,-13.891125
5919000000,-64.083778,-28.537189
5922000000,-65.504692,-45.350693
5925000000,-64.359428,-64.106522
5928000000,-64.473282,-78.239616
5931000000,-64.804619,-91.039909
5934000000,-64.763496,-101.99122
5937000000,-65.181206,-118.38201
5940000000,-65.499771,-136.7612
5943000000,-65.05191,-154.87148
5946000000,-65.227745,-155.75665
5949000000,-64.944122,-172.13976
5952000000,-65.342796,173.41212
5955000000,-65.96067,164.86728
5958000000,-65.480995,145.91696
5961000000,-65.523422,130.52383
5964000000,-66.099617,115.14728
5967000000,-64.749229,100.7677
5970000000,-65.360367,87.870239
5973000000,-64.506493,73.168617
5976000000,-65.488655,53.266151
5979000000,-65.514435,40.917423
5982000000,-65.972137,24.872303
5985000000,-66.164322,12.000627
5988000000,-65.980766,-3.8422256
5991000000,-65.159821,-19.162266
5994000000,-66.290848,-30.087994
5997000000,-65.249321,-41.456104
6000000000,-65.68232,-55.267815
END

