!CSV A.01.01
!Keysight Technologies,N5227B,US58420762,A.13.80.08
!Date: Monday, November 20, 2023 16:31:33
!Source: Standard

BEGIN CH1_DATA
Freq(Hz),S21(DB),S21(DEG)
3000000000,-52.864826,77.2201
3003000000,-52.997913,62.82148
3006000000,-53.118771,49.306694
3009000000,-53.079033,34.380398
3012000000,-52.962227,21.068695
3015000000,-53.123928,6.458704
3018000000,-53.000874,-8.4469442
3021000000,-53.009769,-22.925486
3024000000,-53.043247,-36.960285
3027000000,-52.971569,-51.569126
3030000000,-52.940765,-65.956116
3033000000,-52.937794,-80.220833
3036000000,-52.838245,-94.512276
3039000000,-52.646454,-109.29232
3042000000,-52.672119,-123.56448
3045000000,-52.540955,-138.82794
3048000000,-52.507706,-152.89476
3051000000,-52.448025,-167.7478
3054000000,-52.258575,176.86874
3057000000,-52.229874,161.97949
3060000000,-52.19503,146.8875
3063000000,-52.052139,131.5177
3066000000,-52.044216,117.01286
3069000000,-52.022503,100.86251
3072000000,-52.016361,85.273849
3075000000,-52.117027,71.194489
3078000000,-52.120953,55.855881
3081000000,-52.078537,40.934238
3084000000,-52.046364,27.306028
3087000000,-51.990246,11.981473
3090000000,-51.867775,-2.7344441
3093000000,-51.888458,-18.126503
3096000000,-51.869282,-32.985912
3099000000,-51.815105,-46.974174
3102000000,-51.656548,-62.608433
3105000000,-51.580544,-78.048409
3108000000,-51.383221,-93.525291
3111000000,-51.408016,-110.49829
3114000000,-51.512409,-126.45419
3117000000,-51.748985,-142.2309
3120000000,-52.001488,-156.74426
3123000000,-51.964466,-171.44527
3126000000,-51.978706,174.57347
3129000000,-52.081791,159.28128
3132000000,-51.983444,143.98677
3135000000,-51.961514,129.03107
3138000000,-52.174622,114.36939
3141000000,-52.303814,100.144
3144000000,-52.193737,85.793678
3147000000,-52.173573,70.625656
3150000000,-52.263649,55.310081
3153000000,-52.252651,40.728271
3156000000,-52.314915,25.108482
3159000000,-52.440182,9.443161
3162000000,-52.594971,-4.8792582
3165000000,-52.91782,-18.698833
3168000000,-52.891235,-32.601631
3171000000,-53.010593,-46.944359
3174000000,-52.937794,-60.122162
3177000000,-52.903294,-74.719528
3180000000,-53.001289,-88.637581
3183000000,-53.092358,-103.05895
3186000000,-52.99865,-116.03709
3189000000,-52.786175,-129.80043
3192000000,-52.694489,-144.53038
3195000000,-52.561428,-159.09099
3198000000,-52.501884,-172.89023
3201000000,-52.336838,172.90463
3204000000,-52.124199,157.27843
3207000000,-51.967648,141.96449
3210000000,-52.022446,127.13416
3213000000,-52.01923,111.68353
3216000000,-51.981735,96.188339
3219000000,-52.010387,81.94149
3222000000,-51.907204,67.239311
3225000000,-51.790741,51.399891
3228000000,-51.769245,36.525513
3231000000,-51.793152,21.451071
3234000000,-51.692673,6.9106388
3237000000,-51.780621,-8.7826223
3240000000,-51.692005,-23.52574
3243000000,-51.802139,-38.81575
3246000000,-51.777874,-54.096241
3249000000,-51.88163,-68.423698
3252000000,-51.840584,-83.349503
3255000000,-51.781109,-98.15995
3258000000,-51.813328,-113.02338
3261000000,-51.784592,-127.50805
3264000000,-51.7383,-142.49159
3267000000,-51.798237,-157.77451
3270000000,-51.740131,-172.55537
3273000000,-51.791885,172.54462
3276000000,-51.681648,157.09592
3279000000,-51.816193,142.10907
3282000000,-51.909355,127.52635
3285000000,-52.045547,112.72619
3288000000,-51.991512,98.51635
3291000000,-51.83432,84.085838
3294000000,-51.827621,68.617401
3297000000,-51.942276,53.525364
3300000000,-51.866055,39.824837
3303000000,-51.85812,24.210897
3306000000,-51.893528,9.6142588
3309000000,-51.781918,-5.4884014
3312000000,-51.843773,-21.092016
3315000000,-51.880436,-36.114037
3318000000,-52.030331,-50.764389
3321000000,-52.182636,-65.294281
3324000000,-52.268444,-79.301559
3327000000,-52.249859,-94.133125
3330000000,-52.226028,-107.8315
3333000000,-52.209778,-121.96778
3336000000,-51.997574,-137.29616
3339000000,-52.024876,-151.56113
3342000000,-52.00967,-166.39293
3345000000,-52.032925,178.6803
3348000000,-52.002544,164.33177
3351000000,-52.141441,148.5614
3354000000,-51.980957,134.53381
3357000000,-51.822754,119.41683
3360000000,-51.815525,104.56384
3363000000,-51.8064,88.550346
3366000000,-51.994473,73.155067
3369000000,-52.072807,59.209866
3372000000,-52.123356,44.308796
3375000000,-52.157906,30.223721
3378000000,-52.025242,16.875832
3381000000,-51.992718,1.5290958
3384000000,-52.101147,-13.503989
3387000000,-52.026081,-27.863577
3390000000,-52.003357,-42.441315
3393000000,-51.922127,-57.356911
3396000000,-51.845654,-72.634499
3399000000,-51.928913,-87.318398
3402000000,-51.884594,-102.06288
3405000000,-51.930191,-117.0817
3408000000,-51.977936,-132.26685
3411000000,-51.987259,-146.96672
3414000000,-52.169643,-161.40575
3417000000,-52.135876,-176.38693
3420000000,-52.342968,170.37721
3423000000,-52.245102,156.56204
3426000000,-52.105717,142.95404
3429000000,-52.089474,127.62138
3432000000,-52.005959,113.541
3435000000,-51.809055,98.258881
3438000000,-51.775169,84.551575
3441000000,-51.69751,69.938454
3444000000,-51.586235,54.960667
3447000000,-51.43475,39.959885
3450000000,-51.266182,24.04468
3453000000,-51.35524,8.8422899
3456000000,-51.278336,-6.1344838
3459000000,-51.160831,-20.996422
3462000000,-51.172092,-37.012043
3465000000,-51.247757,-52.091431
3468000000,-51.227341,-67.292
3471000000,-51.221539,-82.137535
3474000000,-51.185856,-97.184647
3477000000,-51.247963,-112.59634
3480000000,-51.242817,-128.26399
3483000000,-51.414368,-142.86362
3486000000,-51.514874,-157.58075
3489000000,-51.43895,-171.78285
3492000000,-51.508553,173.63506
3495000000,-51.421238,158.32628
3498000000,-51.48991,142.8018
3501000000,-51.472157,128.44485
3504000000,-51.49987,114.59936
3507000000,-51.399418,99.153641
3510000000,-51.409332,84.216957
3513000000,-51.406288,68.627556
3516000000,-51.425556,54.219269
3519000000,-51.460052,38.826927
3522000000,-51.43507,23.213827
3525000000,-51.551426,8.4657631
3528000000,-51.654491,-6.4861732
3531000000,-51.825115,-22.629507
3534000000,-51.90052,-35.856087
3537000000,-51.971836,-50.297417
3540000000,-51.987686,-64.350327
3543000000,-52.013512,-78.921776
3546000000,-51.866131,-93.70285
3549000000,-51.882,-108.76315
3552000000,-52.044991,-123.80148
3555000000,-52.172573,-138.17075
3558000000,-52.326874,-151.6013
3561000000,-52.452862,-165.39781
3564000000,-52.357647,-179.59839
3567000000,-52.506287,167.60886
3570000000,-52.385845,154.0041
3573000000,-52.210491,139.65904
3576000000,-51.985043,125.56677
3579000000,-51.848633,111.41238
3582000000,-51.67791,95.288773
3585000000,-51.563213,80.27832
3588000000,-51.500187,65.096825
3591000000,-51.378551,51.132431
3594000000,-51.329124,35.898205
3597000000,-51.300869,19.362265
3600000000,-51.299953,4.2789536
3603000000,-51.321583,-10.520714
3606000000,-51.450489,-25.652338
3609000000,-51.451553,-39.973873
3612000000,-51.414467,-54.7118
3615000000,-51.328754,-69.045563
3618000000,-51.261944,-83.71106
3621000000,-51.22797,-99.123238
3624000000,-51.167137,-114.44757
3627000000,-51.139946,-129.5475
3630000000,-51.236744,-144.83179
3633000000,-51.358166,-158.94809
3636000000,-51.316479,-173.13022
3639000000,-51.200527,172.73904
3642000000,-50.976952,156.98308
3645000000,-50.923576,141.34114
3648000000,-50.965733,125.80907
3651000000,-51.039787,111.39944
3654000000,-51.039513,95.360718
3657000000,-51.201683,81.20874
3660000000,-51.332134,66.724968
3663000000,-51.140919,52.301884
3666000000,-51.058929,37.85437
3669000000,-51.073517,22.527225
3672000000,-51.109791,7.2798982
3675000000,-51.049656,-7.432034
3678000000,-51.067013,-22.446711
3681000000,-51.059135,-37.80854
3684000000,-51.122849,-52.569263
3687000000,-51.088257,-67.67746
3690000000,-51.130558,-82.573807
3693000000,-51.246216,-98.175797
3696000000,-51.319092,-113.09209
3699000000,-51.322891,-127.18683
3702000000,-51.470661,-141.67009
3705000000,-51.493977,-155.06525
3708000000,-51.375725,-169.78142
3711000000,-51.255871,175.06471
3714000000,-51.214199,160.66309
3717000000,-51.180126,145.90591
3720000000,-51.147564,129.93697
3723000000,-51.183029,115.38117
3726000000,-51.328682,100.21654
3729000000,-51.289215,85.356049
3732000000,-51.17878,70.560951
3735000000,-51.143833,54.565884
3738000000,-51.247665,40.055786
3741000000,-51.316002,24.241217
3744000000,-51.446926,9.8428411
3747000000,-51.552666,-5.505342
3750000000,-51.709099,-18.605783
3753000000,-51.672802,-32.650482
3756000000,-51.56102,-47.222477
3759000000,-51.45739,-62.342888
3762000000,-51.6096,-76.94632
3765000000,-51.524849,-91.818855
3768000000,-51.698254,-106.51472
3771000000,-51.685215,-120.31242
3774000000,-51.618942,-134.65967
3777000000,-51.583904,-148.67303
3780000000,-51.494724,-163.21991
3783000000,-51.380917,-178.7238
3786000000,-51.257885,165.8636
3789000000,-51.326126,150.74879
3792000000,-51.354393,136.11906
3795000000,-51.482151,121.65242
3798000000,-51.373528,107.38692
3801000000,-51.403793,92.513756
3804000000,-51.281712,77.339333
3807000000,-51.29525,62.282944
3810000000,-51.169022,48.061852
3813000000,-51.197094,32.293331
3816000000,-51.09956,17.623583
3819000000,-51.111847,2.9170518
3822000000,-51.027386,-12.813207
3825000000,-51.042046,-27.337881
3828000000,-50.993309,-43.061546
3831000000,-51.039265,-58.330643
3834000000,-51.165981,-74.59021
3837000000,-51.265495,-88.655937
3840000000,-51.368927,-103.05367
3843000000,-51.377388,-117.79358
3846000000,-51.390896,-132.80226
3849000000,-51.551399,-147.31158
3852000000,-51.414539,-162.02377
3855000000,-51.438423,-177.05481
3858000000,-51.526615,168.2892
3861000000,-51.581913,153.89847
3864000000,-51.558052,138.40277
3867000000,-51.536045,124.26476
3870000000,-51.482769,108.94769
3873000000,-51.607437,93.615021
3876000000,-51.587872,78.808479
3879000000,-51.705555,64.003761
3882000000,-51.869015,49.220428
3885000000,-51.779667,35.605869
3888000000,-51.845547,20.362171
3891000000,-51.971966,5.8969789
3894000000,-52.056187,-8.1704493
3897000000,-52.128479,-22.330776
3900000000,-52.04248,-35.781963
3903000000,-51.985226,-50.153633
3906000000,-52.042839,-64.466034
3909000000,-51.849155,-78.057632
3912000000,-51.639648,-92.628548
3915000000,-51.509731,-107.39064
3918000000,-51.463524,-122.78276
3921000000,-51.399441,-137.72572
3924000000,-51.360886,-153.2657
3927000000,-51.436916,-168.15089
3930000000,-51.385963,176.37198
3933000000,-51.334068,162.05876
3936000000,-51.319065,146.12376
3939000000,-51.391907,131.07556
3942000000,-51.472771,116.60405
3945000000,-51.396084,102.09646
3948000000,-51.437782,87.700783
3951000000,-51.42025,73.677399
3954000000,-51.465458,58.371685
3957000000,-51.280025,43.746742
3960000000,-51.286263,27.714031
3963000000,-51.203941,13.572857
3966000000,-51.221504,-2.8776598
3969000000,-51.268265,-17.847879
3972000000,-51.246403,-32.102036
3975000000,-51.196793,-47.227974
3978000000,-51.035381,-61.903267
3981000000,-51.078201,-78.265373
3984000000,-51.231514,-93.516144
3987000000,-51.300999,-108.33829
3990000000,-51.373993,-122.7024
3993000000,-51.382626,-137.74139
3996000000,-51.361252,-152.11612
3999000000,-51.335423,-167.26056
4002000000,-51.373524,177.53441
4005000000,-51.166275,162.02171
4008000000,-51.381535,145.22311
4011000000,-51.437057,130.86363
4014000000,-51.712608,116.91027
4017000000,-51.654778,102.34452
4020000000,-51.733753,88.176224
4023000000,-51.748295,73.210571
4026000000,-51.80558,57.512768
4029000000,-51.847652,42.610764
4032000000,-52.008667,27.770105
4035000000,-52.2616,13.341323
4038000000,-52.336502,-0.34721017
4041000000,-52.272968,-13.793027
4044000000,-52.152493,-27.64452
4047000000,-51.995632,-43.01181
4050000000,-51.968662,-58.223469
4053000000,-52.131084,-73.669373
4056000000,-52.172916,-88.359825
4059000000,-52.233654,-103.3271
4062000000,-52.289043,-116.8362
4065000000,-52.197212,-131.86742
4068000000,-52.183479,-146.06075
4071000000,-52.091297,-161.40172
4074000000,-52.07819,-176.41682
4077000000,-52.165413,168.82956
4080000000,-52.351418,154.45538
4083000000,-52.285133,140.37631
4086000000,-52.44099,125.22639
4089000000,-52.305653,111.66488
4092000000,-52.247486,97.095818
4095000000,-52.311581,81.501434
4098000000,-52.395985,66.547394
4101000000,-52.414314,52.796791
4104000000,-52.457409,37.301907
4107000000,-52.57943,23.899702
4110000000,-52.476143,10.214038
4113000000,-52.334904,-4.5358691
4116000000,-52.163689,-18.272449
4119000000,-52.143719,-34.546677
4122000000,-52.047501,-48.847755
4125000000,-52.138107,-64.130707
4128000000,-52.29689,-78.355621
4131000000,-52.23399,-91.46479
4134000000,-52.080429,-106.66289
4137000000,-51.995373,-121.46056
4140000000,-51.884254,-136.65941
4143000000,-51.995113,-151.76128
4146000000,-51.902309,-167.11418
4149000000,-52.002129,178.112
4152000000,-51.993488,163.08337
4155000000,-51.915901,148.84195
4158000000,-51.861885,134.82634
4161000000,-51.648411,119.80264
4164000000,-51.682148,103.25574
4167000000,-51.731556,88.631462
4170000000,-51.929966,72.501076
4173000000,-51.982323,59.330704
4176000000,-51.918514,44.024082
4179000000,-51.860001,30.047682
4182000000,-51.923317,14.060477
4185000000,-51.888527,-0.51961851
4188000000,-51.736401,-16.375624
4191000000,-51.982216,-31.56975
4194000000,-52.048893,-47.001293
4197000000,-52.166073,-60.801777
4200000000,-52.068947,-75.313927
4203000000,-52.077606,-89.591042
4206000000,-52.063637,-104.58577
4209000000,-51.997822,-119.36317
4212000000,-51.883686,-134.33745
4215000000,-51.939667,-150.11942
4218000000,-52.199726,-164.60484
4221000000,-52.298714,-178.95772
4224000000,-52.207951,167.3409
4227000000,-52.03957,152.51242
4230000000,-51.990044,136.85869
4233000000,-52.085732,121.77506
4236000000,-52.125969,106.9192
4239000000,-51.983879,91.426697
4242000000,-52.070465,75.948135
4245000000,-52.288967,60.685711
4248000000,-52.332119,46.888107
4251000000,-52.4034,32.385628
4254000000,-52.406479,18.200483
4257000000,-52.420765,3.0168214
4260000000,-52.492657,-11.443282
4263000000,-52.492264,-26.129377
4266000000,-52.455746,-40.149445
4269000000,-52.476864,-55.067997
4272000000,-52.385986,-69.227386
4275000000,-52.147938,-84.313622
4278000000,-52.193684,-98.677696
4281000000,-52.117664,-114.02722
4284000000,-52.214806,-129.127
4287000000,-52.420727,-144.31815
4290000000,-52.442009,-158.98502
4293000000,-52.349594,-173.53175
4296000000,-52.367683,173.31241
4299000000,-52.401058,158.21161
4302000000,-52.326237,143.49603
4305000000,-52.169785,128.71718
4308000000,-52.27079,114.03807
4311000000,-52.053993,98.151299
4314000000,-52.127151,83.64975
4317000000,-52.165859,68.803291
4320000000,-52.102791,53.710644
4323000000,-52.060215,37.750751
4326000000,-51.994713,22.388033
4329000000,-51.953846,8.1023378
4332000000,-52.193497,-8.7314873
4335000000,-52.330379,-24.113646
4338000000,-52.560886,-38.471252
4341000000,-52.733143,-51.951321
4344000000,-52.745987,-66.813057
4347000000,-52.719379,-80.828781
4350000000,-52.821205,-94.481628
4353000000,-52.736538,-109.40778
4356000000,-52.619305,-124.07699
4359000000,-52.742306,-137.29228
4362000000,-52.661266,-152.81949
4365000000,-52.675186,-166.9373
4368000000,-52.459137,178.58833
4371000000,-52.387634,163.67908
4374000000,-52.468552,148.35382
4377000000,-52.498489,133.6611
4380000000,-52.484585,117.87234
4383000000,-52.664368,104.32897
4386000000,-52.608696,88.404884
4389000000,-52.545837,74.304581
4392000000,-52.419666,59.469139
4395000000,-52.505733,44.605427
4398000000,-52.526009,29.870136
4401000000,-52.568714,15.208216
4404000000,-52.456303,0.7962476
4407000000,-52.468803,-14.325632
4410000000,-52.40815,-29.269571
4413000000,-52.358921,-44.322617
4416000000,-52.389668,-58.360729
4419000000,-52.383877,-73.314018
4422000000,-52.367992,-87.951767
4425000000,-52.281216,-103.22668
4428000000,-52.275959,-118.01476
4431000000,-52.270287,-133.53963
4434000000,-52.167446,-149.06519
4437000000,-52.225231,-163.19475
4440000000,-52.258266,-179.19313
4443000000,-52.293613,166.20769
4446000000,-52.225567,151.46846
4449000000,-52.324245,136.55321
4452000000,-52.38715,121.55843
4455000000,-52.293915,106.86239
4458000000,-52.303761,91.585091
4461000000,-52.248116,77.500671
4464000000,-52.420452,61.927132
4467000000,-52.438702,46.364269
4470000000,-52.309986,32.850864
4473000000,-52.359074,17.594721
4476000000,-52.261219,2.5972004
4479000000,-52.384384,-13.627848
4482000000,-52.444019,-28.84362
4485000000,-52.56638,-43.516869
4488000000,-52.737183,-57.82822
4491000000,-52.633686,-71.828346
4494000000,-52.613251,-85.87471
4497000000,-52.611137,-100.56411
4500000000,-52.621731,-114.99738
4503000000,-52.469063,-130.16219
4506000000,-52.693169,-146.43024
4509000000,-52.650578,-160.58139
4512000000,-52.550827,-175.36365
4515000000,-52.510719,170.75546
4518000000,-52.335011,156.13397
4521000000,-52.403538,140.27005
4524000000,-52.513565,123.72232
4527000000,-52.404335,109.53722
4530000000,-52.588081,94.001114
4533000000,-52.511246,79.898735
4536000000,-52.715096,64.601334
4539000000,-52.730736,50.53154
4542000000,-52.771259,36.569515
4545000000,-52.848324,22.021261
4548000000,-52.672447,7.3123393
4551000000,-52.534618,-8.4667902
4554000000,-52.526516,-23.526384
4557000000,-52.522945,-39.330479
4560000000,-52.550293,-54.345886
4563000000,-52.511211,-68.995781
4566000000,-52.390141,-84.90152
4569000000,-52.423527,-99.84716
4572000000,-52.522514,-115.62243
4575000000,-52.698494,-131.80202
4578000000,-52.719902,-146.25195
4581000000,-52.772518,-161.68658
4584000000,-53.133129,-176.95428
4587000000,-52.958164,168.85966
4590000000,-53.251335,154.00101
4593000000,-53.075207,139.52031
4596000000,-53.17952,125.11934
4599000000,-53.279938,108.84523
4602000000,-53.563339,94.584267
4605000000,-53.610023,80.28492
4608000000,-53.73793,65.161789
4611000000,-53.784309,50.394924
4614000000,-53.737896,36.458126
4617000000,-53.938396,21.320047
4620000000,-53.794907,6.3806639
4623000000,-54.089306,-6.3936644
4626000000,-54.140739,-21.628454
4629000000,-54.106834,-35.212807
4632000000,-53.989544,-49.388351
4635000000,-54.042179,-64.02729
4638000000,-53.940632,-79.628502
4641000000,-53.965466,-92.880325
4644000000,-53.870159,-108.48336
4647000000,-54.119465,-123.77185
4650000000,-54.146824,-136.82645
4653000000,-54.26841,-151.06178
4656000000,-54.209484,-166.85532
4659000000,-54.142422,179.2766
4662000000,-54.066246,164.24077
4665000000,-54.106014,149.15298
4668000000,-54.125343,134.7144
4671000000,-54.25238,119.70753
4674000000,-54.000866,106.99464
4677000000,-54.240295,92.60807
4680000000,-54.067852,77.250168
4683000000,-54.025623,63.053944
4686000000,-53.978031,48.118435
4689000000,-53.853741,33.102894
4692000000,-53.84465,18.64032
4695000000,-53.837646,3.9291141
4698000000,-53.535889,-12.804405
4701000000,-53.753082,-25.95882
4704000000,-53.546494,-40.677441
4707000000,-53.720921,-56.850014
4710000000,-53.404728,-72.489418
4713000000,-53.524696,-86.89447
4716000000,-53.491161,-102.90372
4719000000,-53.729984,-117.0785
4722000000,-53.751228,-132.8067
4725000000,-53.724663,-147.81136
4728000000,-53.777637,-163.04785
4731000000,-53.770443,-178.77861
4734000000,-53.824127,167.73013
4737000000,-53.930298,152.62119
4740000000,-54.079132,137.0442
4743000000,-54.132202,122.68322
4746000000,-53.910576,107.66174
4749000000,-54.107124,93.677986
4752000000,-54.200439,77.893806
4755000000,-54.151306,63.545567
4758000000,-54.217335,49.48151
4761000000,-54.073456,34.448833
4764000000,-54.233292,19.138178
4767000000,-54.338127,3.2950275
4770000000,-54.317268,-11.532457
4773000000,-54.305786,-26.240952
4776000000,-54.321045,-40.413116
4779000000,-54.627365,-57.023491
4782000000,-54.654957,-71.941017
4785000000,-54.587311,-85.465607
4788000000,-54.579762,-99.767883
4791000000,-54.645721,-115.03439
4794000000,-54.740971,-129.7697
4797000000,-54.773384,-144.57321
4800000000,-54.704769,-158.03215
4803000000,-54.830399,-173.01225
4806000000,-54.769985,172.59811
4809000000,-54.99733,156.88351
4812000000,-54.971756,142.20927
4815000000,-55.052841,126.95321
4818000000,-55.082775,112.11537
4821000000,-55.047932,98.097343
4824000000,-55.221188,84.628487
4827000000,-55.216946,69.064476
4830000000,-55.154354,55.721985
4833000000,-55.207813,40.297466
4836000000,-55.34708,26.903973
4839000000,-55.263889,10.533781
4842000000,-55.186386,-2.7442112
4845000000,-55.44038,-17.240623
4848000000,-55.304523,-30.817234
4851000000,-55.334892,-44.704758
4854000000,-55.416504,-60.917351
4857000000,-55.361034,-75.153252
4860000000,-55.680744,-89.359795
4863000000,-55.566521,-103.25303
4866000000,-55.358784,-117.99115
4869000000,-55.401863,-133.50975
4872000000,-55.411514,-144.71875
4875000000,-55.367313,-160.08382
4878000000,-55.429577,-175.76004
4881000000,-54.971676,171.28912
4884000000,-54.959045,157.01321
4887000000,-54.875507,140.73181
4890000000,-54.989803,126.57384
4893000000,-54.875202,111.75336
4896000000,-55.290768,96.804688
4899000000,-54.89653,81.97628
4902000000,-54.918186,67.927902
4905000000,-54.899132,52.975483
4908000000,-54.697872,37.921871
4911000000,-54.907986,23.605675
4914000000,-54.729374,7.5807605
4917000000,-54.711967,-5.6250815
4920000000,-54.742035,-20.203693
4923000000,-54.299274,-35.043629
4926000000,-54.24678,-50.719593
4929000000,-54.40073,-67.906021
4932000000,-54.350693,-82.182671
4935000000,-54.345757,-97.469528
4938000000,-54.238873,-113.17286
4941000000,-54.767361,-128.54291
4944000000,-54.572819,-142.58691
4947000000,-54.603336,-158.38985
4950000000,-54.528191,-172.68152
4953000000,-54.477337,172.61707
4956000000,-54.59,156.47659
4959000000,-54.730488,139.97311
4962000000,-54.976341,125.95862
4965000000,-54.773228,113.14713
4968000000,-54.886112,99.153877
4971000000,-54.793255,84.393417
4974000000,-54.693005,68.23053
4977000000,-54.864605,54.140308
4980000000,-54.783718,37.579391
4983000000,-54.776268,22.498003
4986000000,-54.998444,8.5445938
4989000000,-55.032646,-6.0877595
4992000000,-54.934563,-20.889437
4995000000,-54.917648,-34.285801
4998000000,-54.574028,-51.108913
5001000000,-54.717262,-65.40596
5004000000,-54.926548,-81.90509
5007000000,-54.999302,-95.458336
5010000000,-55.184772,-110.18557
5013000000,-55.03738,-125.06284
5016000000,-55.24567,-140.49615
5019000000,-55.095566,-154.96034
5022000000,-55.059761,-168.22572
5025000000,-55.212463,174.95097
5028000000,-55.121956,160.40359
5031000000,-55.35466,146.92853
5034000000,-55.29929,134.47136
5037000000,-55.132584,118.78477
5040000000,-55.146912,103.95116
5043000000,-55.116001,89.153297
5046000000,-55.075603,74.114334
5049000000,-55.056973,57.741375
5052000000,-55.253532,44.570187
5055000000,-55.025047,29.633429
5058000000,-55.302837,12.287873
5061000000,-55.029305,0.037683018
5064000000,-55.158058,-15.847635
5067000000,-55.172871,-30.510332
5070000000,-54.864388,-44.202679
5073000000,-54.994526,-60.66103
5076000000,-54.989658,-75.429314
5079000000,-55.006195,-90.820923
5082000000,-55.159706,-106.27792
5085000000,-54.796787,-119.22239
5088000000,-54.955551,-136.4176
5091000000,-54.951118,-152.03073
5094000000,-54.842304,-164.08951
5097000000,-55.077236,178.7
5100000000,-55.516342,165.06239
5103000000,-55.272297,149.71121
5106000000,-55.291939,134.59111
5109000000,-55.491066,120.55799
5112000000,-55.269661,106.37966
5115000000,-55.06982,90.432716
5118000000,-55.238552,76.753532
5121000000,-55.068283,62.440144
5124000000,-55.124901,46.234299
5127000000,-55.240452,32.199261
5130000000,-55.187977,16.734085
5133000000,-55.111343,2.0105658
5136000000,-54.990135,-13.80554
5139000000,-55.007813,-29.770756
5142000000,-55.207092,-43.996597
5145000000,-55.404743,-58.555847
5148000000,-55.387714,-73.6614
5151000000,-55.374905,-89.285309
5154000000,-55.247108,-103.34864
5157000000,-55.540237,-118.50795
5160000000,-55.484001,-134.18831
5163000000,-55.707867,-147.85425
5166000000,-55.640762,-164.14676
5169000000,-55.648308,-179.26895
5172000000,-55.11948,167.97639
5175000000,-54.924446,150.92126
5178000000,-54.995548,135.39255
5181000000,-55.285496,122.34422
5184000000,-55.045235,106.10446
5187000000,-55.285873,93.030342
5190000000,-55.23439,78.371651
5193000000,-55.323948,63.881222
5196000000,-55.525688,47.819611
5199000000,-55.194126,36.541306
5202000000,-55.307663,21.805756
5205000000,-55.383877,6.699028
5208000000,-55.089241,-6.9309654
5211000000,-55.066044,-22.734398
5214000000,-55.105122,-37.847748
5217000000,-54.937634,-54.11845
5220000000,-54.93219,-68.580269
5223000000,-54.832718,-83.535782
5226000000,-54.992928,-99.735565
5229000000,-55.322926,-114.40708
5232000000,-55.480335,-129.28613
5235000000,-55.32254,-142.60284
5238000000,-55.324188,-157.84325
5241000000,-55.170841,-172.43231
5244000000,-55.272209,171.17172
5247000000,-55.263508,157.10883
5250000000,-55.604855,142.17805
5253000000,-55.326344,129.27979
5256000000,-55.372715,114.75336
5259000000,-55.480465,99.129532
5262000000,-55.188778,84.585136
5265000000,-55.375977,71.454514
5268000000,-55.166046,55.858067
5271000000,-54.967693,38.701847
5274000000,-55.094135,25.712534
5277000000,-55.019676,8.4573889
5280000000,-55.189411,-4.3141356
5283000000,-55.346012,-21.599466
5286000000,-55.266068,-35.986786
5289000000,-55.313377,-50.530872
5292000000,-55.424706,-65.900253
5295000000,-55.502445,-81.159645
5298000000,-55.589088,-96.289238
5301000000,-55.510864,-108.55319
5304000000,-55.9608,-125.66021
5307000000,-55.554153,-137.70103
5310000000,-55.26582,-151.49754
5313000000,-55.701004,-169.145
5316000000,-55.649033,175.94646
5319000000,-55.57222,160.00746
5322000000,-55.869316,146.28912
5325000000,-55.761871,132.75085
5328000000,-55.651913,118.25735
5331000000,-55.517551,103.32648
5334000000,-55.347897,87.488548
5337000000,-55.270798,74.080948
5340000000,-55.576717,55.99963
5343000000,-55.902836,41.817699
5346000000,-55.592003,26.779104
5349000000,-55.701183,12.661767
5352000000,-55.744209,-1.583215
5355000000,-55.683472,-12.875789
5358000000,-55.746067,-30.902006
5361000000,-55.405949,-47.344849
5364000000,-55.614189,-62.372742
5367000000,-55.793186,-77.473877
5370000000,-56.05455,-90.918213
5373000000,-55.525551,-106.50742
5376000000,-55.823196,-121.94608
5379000000,-55.608288,-139.19666
5382000000,-55.861385,-154.64989
5385000000,-55.848778,-168.90097
5388000000,-56.197495,175.50255
5391000000,-56.537357,161.87035
5394000000,-56.4468,147.90747
5397000000,-56.454983,134.49486
5400000000,-56.360504,119.9336
5403000000,-56.954514,104.1896
5406000000,-56.618385,88.782829
5409000000,-56.69595,75.226456
5412000000,-56.61927,61.108379
5415000000,-56.883774,45.505131
5418000000,-56.937302,33.040619
5421000000,-56.796066,17.935686
5424000000,-56.620262,4.105823
5427000000,-56.687313,-12.208624
5430000000,-56.822582,-28.579811
5433000000,-56.801807,-42.033478
5436000000,-56.944504,-57.386082
5439000000,-56.839092,-71.881096
5442000000,-57.277908,-85.397224
5445000000,-57.161865,-99.481468
5448000000,-56.734562,-113.6758
5451000000,-56.845497,-127.97126
5454000000,-56.895103,-143.6653
5457000000,-56.934937,-158.25352
5460000000,-57.096481,-172.28651
5463000000,-56.762421,172.84816
5466000000,-56.821129,160.42694
5469000000,-56.818279,144.82588
5472000000,-56.387218,129.49445
5475000000,-56.475933,111.7633
5478000000,-56.460976,98.937004
5481000000,-56.561714,82.828239
5484000000,-56.421364,68.524918
5487000000,-56.608257,52.394268
5490000000,-56.540077,39.503021
5493000000,-56.555099,25.079311
5496000000,-56.470089,7.7613935
5499000000,-56.332188,-6.6099582
5502000000,-56.410992,-21.294779
5505000000,-56.470741,-37.289017
5508000000,-56.79945,-52.9328
5511000000,-56.937511,-66.642494
5514000000,-56.666866,-81.70945
5517000000,-56.417797,-97.896278
5520000000,-56.864834,-111.65631
5523000000,-56.629292,-127.98393
5526000000,-56.97752,-144.74214
5529000000,-56.797241,-159.39284
5532000000,-56.930733,-175.06609
5535000000,-57.191669,171.27472
5538000000,-56.874599,155.06168
5541000000,-57.182716,141.81741
5544000000,-57.342163,125.09722
5547000000,-57.643631,113.25677
5550000000,-57.278145,98.544014
5553000000,-57.521935,80.026855
5556000000,-57.42231,66.559395
5559000000,-58.015656,54.194218
5562000000,-57.683666,39.749619
5565000000,-57.765652,26.752182
5568000000,-57.695858,9.8446608
5571000000,-57.833523,-6.8456578
5574000000,-58.390152,-20.232067
5577000000,-58.153126,-33.985073
5580000000,-58.071106,-49.697289
5583000000,-58.265472,-65.30719
5586000000,-58.326824,-77.129623
5589000000,-58.169067,-92.011826
5592000000,-58.471062,-104.42212
5595000000,-58.42205,-121.12247
5598000000,-58.376648,-134.45204
5601000000,-58.258171,-149.61426
5604000000,-58.239326,-165.54543
5607000000,-58.453976,-177.73041
5610000000,-57.975147,168.98978
5613000000,-57.9403,155.20923
5616000000,-57.727615,138.59912
5619000000,-57.685722,123.33799
5622000000,-57.914043,107.28519
5625000000,-58.267605,94.287422
5628000000,-57.58802,79.42144
5631000000,-57.829563,62.887062
5634000000,-57.513462,48.343983
5637000000,-58.055782,34.296841
5640000000,-57.595642,20.129578
5643000000,-57.621662,5.5043631
5646000000,-57.798779,-11.653211
5649000000,-57.501022,-25.734423
5652000000,-57.464195,-38.756638
5655000000,-57.349316,-56.945404
5658000000,-57.738884,-73.159203
5661000000,-57.539028,-88.427704
5664000000,-57.596432,-102.17025
5667000000,-57.317219,-119.66171
5670000000,-58.034271,-135.18184
5673000000,-57.510368,-151.46606
5676000000,-57.761604,-164.55452
5679000000,-57.877064,-179.97055
5682000000,-58.341862,166.50339
5685000000,-58.263016,151.59467
5688000000,-58.210758,134.78496
5691000000,-58.613686,122.60493
5694000000,-58.639565,105.81615
5697000000,-58.447716,91.464859
5700000000,-58.629105,74.501038
5703000000,-59.13163,62.756378
5706000000,-58.490227,44.543789
5709000000,-59.001801,32.655827
5712000000,-59.063915,19.776661
5715000000,-59.193008,1.6742735
5718000000,-59.127575,-8.6301708
5721000000,-58.885918,-26.637629
5724000000,-59.363743,-42.695763
5727000000,-59.315041,-55.515884
5730000000,-59.474712,-71.514999
5733000000,-59.63081,-83.887444
5736000000,-59.444298,-99.222733
5739000000,-59.667839,-115.70272
5742000000,-59.901146,-126.32917
5745000000,-59.91103,-142.6252
5748000000,-60.422146,-155.34512
5751000000,-60.248917,-171.5849
5754000000,-60.273655,177.94537
5757000000,-60.444172,165.65526
5760000000,-60.78027,147.95213
5763000000,-60.149643,135.86636
5766000000,-60.063103,120.55977
5769000000,-60.049248,108.71746
5772000000,-59.928974,93.180275
5775000000,-59.68877,74.990105
5778000000,-59.531502,61.532635
5781000000,-59.565845,47.630695
5784000000,-59.570229,33.792667
5787000000,-59.107513,17.455841
5790000000,-59.813816,2.9816589
5793000000,-59.659958,-14.267876
5796000000,-60.042767,-26.850803
5799000000,-59.581181,-40.891693
5802000000,-59.885216,-54.851681
5805000000,-60.079498,-70.660667
5808000000,-59.58247,-85.538628
5811000000,-59.753159,-96.664246
5814000000,-59.899456,-112.85214
5817000000,-59.789299,-128.60973
5820000000,-59.649361,-142.43323
5823000000,-59.948368,-158.2243
5826000000,-60.113354,-174.18668
5829000000,-59.765732,175.91631
5832000000,-59.794067,160.8313
5835000000,-59.551716,143.32205
5838000000,-59.639885,132.30244
5841000000,-59.498024,111.81292
5844000000,-59.965584,99.698067
5847000000,-59.67477,84.909653
5850000000,-59.751045,70.958
5853000000,-59.451313,53.25634
5856000000,-59.359989,40.768322
5859000000,-59.44664,27.234859
5862000000,-59.426025,9.4671097
5865000000,-59.576164,-8.5180235
5868000000,-59.861645,-23.567736
5871000000,-59.631653,-34.714676
5874000000,-59.958557,-49.164738
5877000000,-60.277981,-69.39222
5880000000,-59.640823,-82.198112
5883000000,-60.182178,-96.145874
5886000000,-59.902374,-111.4236
5889000000,-59.757938,-127.69174
5892000000,-60.659428,-141.461
5895000000,-60.537552,-152.43535
5898000000,-60.399921,-170.32092
5901000000,-59.96685,175.93277
5904000000,-60.477077,160.0162
5907000000,-61.2341,143.19579
5910000000,-60.986115,128.35428
5913000000,-61.168419,117.98171
5916000000,-60.585003,103.04292
5919000000,-60.987328,94.273247
5922000000,-60.240849,75.596367
5925000000,-59.946445,59.19833
5928000000,-60.812576,47.307674
5931000000,-60.150875,28.673288
5934000000,-60.488686,12.357812
5937000000,-60.476215,-1.3193077
5940000000,-61.168961,-18.709339
5943000000,-61.084732,-29.691912
5946000000,-60.956837,-46.646885
5949000000,-60.750893,-57.336605
5952000000,-60.63385,-75.168259
5955000000,-60.890671,-91.389206
5958000000,-60.917694,-105.97433
5961000000,-60.787289,-120.86079
5964000000,-61.141258,-133.93929
5967000000,-60.979881,-144.56256
5970000000,-61.601768,-161.25203
5973000000,-60.841984,-174.65733
5976000000,-61.241592,168.3577
5979000000,-61.64246,154.37592
5982000000,-61.727715,142.4662
5985000000,-60.968365,127.21109
5988000000,-61.449535,112.51188
5991000000,-60.793602,98.559494
5994000000,-61.075508,78.800072
5997000000,-61.192348,67.970276
6000000000,-61.50256,50.229179
END

