!CSV A.01.01
!Keysight Technologies,N5227B,US58420762,A.13.80.08
!Date: Monday, November 20, 2023 16:30:21
!Source: Standard

BEGIN CH1_DATA
Freq(Hz),S21(DB),S21(DEG)
3000000000,-54.410011,-161.49701
3003000000,-54.416229,-174.36165
3006000000,-54.067505,171.51825
3009000000,-53.942867,156.31448
3012000000,-54.011623,140.00424
3015000000,-54.030117,125.57388
3018000000,-54.180676,111.58068
3021000000,-54.123665,98.227386
3024000000,-54.033497,83.468948
3027000000,-53.995239,69.784309
3030000000,-53.821579,55.166439
3033000000,-53.740154,39.574551
3036000000,-53.70784,25.459196
3039000000,-53.717396,10.359449
3042000000,-53.646812,-3.942621
3045000000,-53.487835,-18.877533
3048000000,-53.42062,-33.41103
3051000000,-53.322823,-48.899086
3054000000,-53.228168,-64.011505
3057000000,-53.315746,-80.186119
3060000000,-53.3489,-95.526337
3063000000,-53.463711,-109.86731
3066000000,-53.463341,-124.96085
3069000000,-53.581863,-139.9593
3072000000,-53.634972,-154.15868
3075000000,-53.565758,-168.93164
3078000000,-53.591377,176.11041
3081000000,-53.689449,161.81476
3084000000,-53.659271,148.23805
3087000000,-53.662544,133.71593
3090000000,-53.599678,119.52541
3093000000,-53.512791,104.42279
3096000000,-53.508801,90.124535
3099000000,-53.265526,74.574326
3102000000,-53.211296,59.419128
3105000000,-53.273808,43.537075
3108000000,-53.417053,28.613373
3111000000,-53.284668,13.012188
3114000000,-53.497673,-1.7645295
3117000000,-53.609478,-17.135067
3120000000,-53.549377,-30.200891
3123000000,-53.711536,-45.220551
3126000000,-53.707874,-60.308578
3129000000,-53.708897,-75.017441
3132000000,-53.960152,-89.108231
3135000000,-53.857277,-103.55135
3138000000,-53.818882,-116.9734
3141000000,-53.776211,-131.53026
3144000000,-53.592812,-146.10629
3147000000,-53.620518,-161.24265
3150000000,-53.696522,-176.75992
3153000000,-53.755642,168.52216
3156000000,-53.793991,153.51596
3159000000,-53.93681,139.12813
3162000000,-53.951473,126.51617
3165000000,-53.68874,111.71291
3168000000,-53.62925,97.523331
3171000000,-53.665237,82.520241
3174000000,-53.583385,66.706139
3177000000,-53.514561,51.926704
3180000000,-53.62878,36.642956
3183000000,-53.705715,23.571121
3186000000,-53.553207,8.4602938
3189000000,-53.418194,-6.946209
3192000000,-53.453369,-22.300079
3195000000,-53.598022,-37.573036
3198000000,-53.829876,-52.348698
3201000000,-53.856026,-66.346519
3204000000,-53.915768,-79.877548
3207000000,-53.812611,-94.117775
3210000000,-53.682365,-108.32401
3213000000,-53.519642,-122.74357
3216000000,-53.673386,-138.24594
3219000000,-53.604565,-152.30577
3222000000,-53.630756,-166.69366
3225000000,-53.573914,178.02043
3228000000,-53.434505,163.3075
3231000000,-53.391113,148.20012
3234000000,-53.295864,133.40546
3237000000,-53.272007,117.99948
3240000000,-53.240036,102.79801
3243000000,-53.374462,86.13269
3246000000,-53.520229,71.709427
3249000000,-53.622234,55.99807
3252000000,-53.714214,42.170002
3255000000,-53.970978,27.503326
3258000000,-53.912716,13.190554
3261000000,-54.041698,-1.5746223
3264000000,-54.228264,-16.399591
3267000000,-54.462502,-28.646381
3270000000,-54.390015,-42.37352
3273000000,-54.319126,-55.706886
3276000000,-54.104549,-68.844238
3279000000,-53.828804,-83.750969
3282000000,-53.906738,-99.419281
3285000000,-54.027275,-114.30911
3288000000,-53.966576,-128.83063
3291000000,-53.95216,-142.4796
3294000000,-53.7873,-156.60155
3297000000,-53.71537,-171.58577
3300000000,-53.68874,173.53799
3303000000,-53.674,158.48846
3306000000,-53.667305,144.02081
3309000000,-53.573273,128.12845
3312000000,-53.696609,113.31695
3315000000,-53.877754,98.921631
3318000000,-53.741951,84.548195
3321000000,-53.677135,69.973999
3324000000,-53.5965,55.292912
3327000000,-53.482742,40.31916
3330000000,-53.685436,25.324068
3333000000,-53.779667,9.9060774
3336000000,-53.877098,-4.2491436
3339000000,-53.891254,-18.414043
3342000000,-53.723541,-32.279724
3345000000,-53.623806,-46.789146
3348000000,-53.502872,-62.683693
3351000000,-53.611584,-77.959312
3354000000,-53.732365,-92.225571
3357000000,-53.795135,-107.49716
3360000000,-53.971592,-120.99789
3363000000,-53.922882,-136.08427
3366000000,-53.912384,-150.27415
3369000000,-53.761189,-164.63219
3372000000,-53.850048,179.01253
3375000000,-53.925476,164.17474
3378000000,-54.247959,149.80066
3381000000,-54.341419,135.79234
3384000000,-54.348282,122.28378
3387000000,-54.446392,107.65816
3390000000,-54.326881,94.514214
3393000000,-54.323029,80.430428
3396000000,-54.322495,65.465187
3399000000,-54.533779,51.101532
3402000000,-54.580765,38.136894
3405000000,-54.616245,24.864607
3408000000,-54.503479,12.511838
3411000000,-53.968761,-1.8589033
3414000000,-53.960121,-16.747252
3417000000,-53.769878,-33.174709
3420000000,-53.832897,-47.720871
3423000000,-53.757397,-61.692757
3426000000,-53.769325,-78.152374
3429000000,-53.94043,-91.949791
3432000000,-53.93922,-105.52494
3435000000,-53.795929,-119.10395
3438000000,-53.729488,-133.85715
3441000000,-53.738682,-148.74118
3444000000,-53.70417,-162.80591
3447000000,-53.625633,-177.21262
3450000000,-53.52911,169.26665
3453000000,-53.530315,154.76723
3456000000,-53.197968,141.23936
3459000000,-52.984016,126.141
3462000000,-52.604321,110.85786
3465000000,-52.63718,95.214592
3468000000,-52.637192,79.447006
3471000000,-52.585529,63.229301
3474000000,-52.480026,47.892872
3477000000,-52.504845,32.715954
3480000000,-52.540058,17.466372
3483000000,-52.471447,2.2214859
3486000000,-52.508682,-12.714718
3489000000,-52.611183,-28.413662
3492000000,-52.650379,-43.843468
3495000000,-52.699001,-58.015381
3498000000,-52.778702,-73.228043
3501000000,-52.865154,-88.100868
3504000000,-52.748573,-102.13256
3507000000,-52.779072,-116.32409
3510000000,-52.681343,-131.66145
3513000000,-52.586403,-146.61369
3516000000,-52.69854,-162.59015
3519000000,-52.776047,-179.06589
3522000000,-52.920788,166.66014
3525000000,-52.9562,152.97005
3528000000,-53.046799,137.83502
3531000000,-53.040218,122.31853
3534000000,-53.214558,106.58371
3537000000,-53.29929,93.307991
3540000000,-53.506874,78.192963
3543000000,-53.483292,63.645603
3546000000,-53.622791,49.89695
3549000000,-53.606461,36.109276
3552000000,-53.626358,21.847073
3555000000,-53.535786,7.5498104
3558000000,-53.650364,-6.9305787
3561000000,-53.613449,-21.680014
3564000000,-53.883041,-36.500137
3567000000,-53.963501,-49.564354
3570000000,-53.987816,-62.666256
3573000000,-53.723991,-76.171967
3576000000,-53.504604,-89.736008
3579000000,-53.345856,-105.77547
3582000000,-53.110977,-121.23061
3585000000,-53.114433,-135.79536
3588000000,-53.440929,-151.85748
3591000000,-53.462208,-166.17224
3594000000,-53.423576,-178.96802
3597000000,-53.318001,165.99706
3600000000,-53.293743,152.2646
3603000000,-53.334053,136.97269
3606000000,-53.261497,122.89225
3609000000,-53.200039,107.91259
3612000000,-53.240746,94.622169
3615000000,-53.089081,80.555992
3618000000,-52.751633,66.283882
3621000000,-52.677868,50.186935
3624000000,-52.576042,34.573631
3627000000,-52.5042,19.212276
3630000000,-52.491096,3.8511257
3633000000,-52.653542,-11.997973
3636000000,-52.651344,-26.639454
3639000000,-52.667442,-40.550732
3642000000,-52.631123,-55.410049
3645000000,-52.581505,-70.575508
3648000000,-52.566933,-85.208672
3651000000,-52.650314,-100.61768
3654000000,-52.649002,-116.75474
3657000000,-52.693005,-131.0806
3660000000,-52.880249,-144.94699
3663000000,-52.925957,-160.15274
3666000000,-52.81646,-175.07002
3669000000,-52.927795,169.95572
3672000000,-52.900829,155.33569
3675000000,-53.073849,141.23946
3678000000,-53.050232,127.89745
3681000000,-53.083199,113.23678
3684000000,-52.920994,98.832291
3687000000,-52.88942,84.566765
3690000000,-52.886753,69.741364
3693000000,-52.700317,53.762146
3696000000,-52.739777,38.521507
3699000000,-52.919743,24.103933
3702000000,-52.907055,9.3522406
3705000000,-52.857132,-5.0958085
3708000000,-52.802189,-19.303282
3711000000,-52.786922,-35.4459
3714000000,-52.91581,-49.876236
3717000000,-52.928368,-64.844429
3720000000,-53.01281,-79.449471
3723000000,-53.150116,-94.82885
3726000000,-53.351658,-109.63125
3729000000,-53.353092,-122.71073
3732000000,-53.39188,-137.35852
3735000000,-53.366768,-150.90266
3738000000,-53.521832,-164.74229
3741000000,-53.510914,-178.96597
3744000000,-53.37273,166.31989
3747000000,-53.289276,152.98926
3750000000,-53.266872,138.96277
3753000000,-53.09544,124.94765
3756000000,-53.087303,109.89899
3759000000,-53.031532,94.907509
3762000000,-52.83112,80.264526
3765000000,-52.742493,65.126213
3768000000,-52.787384,50.601372
3771000000,-53.009251,36.224228
3774000000,-52.87764,21.289545
3777000000,-52.895863,7.3983788
3780000000,-52.684223,-7.5508389
3783000000,-52.569016,-22.487188
3786000000,-52.611317,-36.760826
3789000000,-52.736118,-53.067226
3792000000,-52.61552,-67.053993
3795000000,-52.617085,-80.880714
3798000000,-52.634483,-96.422142
3801000000,-52.457241,-111.16808
3804000000,-52.620682,-125.19653
3807000000,-52.529327,-139.73656
3810000000,-52.511826,-154.65059
3813000000,-52.45343,-169.87096
3816000000,-52.285164,175.87694
3819000000,-52.227062,160.98148
3822000000,-52.024754,145.42239
3825000000,-52.033897,130.20578
3828000000,-51.994392,114.47622
3831000000,-52.084724,99.508095
3834000000,-52.060303,84.644768
3837000000,-52.073643,69.029396
3840000000,-52.128094,53.967426
3843000000,-52.137512,38.950298
3846000000,-52.03455,24.029562
3849000000,-51.962116,7.9572363
3852000000,-52.043335,-7.3070621
3855000000,-52.215588,-23.183205
3858000000,-52.449413,-37.862358
3861000000,-52.613003,-52.124065
3864000000,-52.614857,-65.933159
3867000000,-52.637619,-80.880249
3870000000,-52.690498,-95.316772
3873000000,-52.750813,-109.21957
3876000000,-52.731327,-124.07813
3879000000,-52.811283,-139.65199
3882000000,-52.697453,-153.23598
3885000000,-52.766624,-167.57269
3888000000,-52.626202,177.41484
3891000000,-52.792347,161.62799
3894000000,-52.704739,146.94202
3897000000,-52.751415,131.60222
3900000000,-52.639736,117.24987
3903000000,-52.778111,101.0473
3906000000,-53.111195,86.312996
3909000000,-53.073479,72.332237
3912000000,-53.163784,57.729294
3915000000,-53.064777,44.238289
3918000000,-53.134033,28.668268
3921000000,-53.266125,14.202698
3924000000,-53.294388,-0.67211789
3927000000,-53.481064,-15.284014
3930000000,-53.530453,-28.195415
3933000000,-53.699833,-42.400539
3936000000,-53.377087,-55.604626
3939000000,-53.337364,-70.421684
3942000000,-53.110004,-85.311485
3945000000,-53.055115,-100.64657
3948000000,-53.161648,-115.6778
3951000000,-53.118607,-130.73189
3954000000,-53.173294,-146.22955
3957000000,-53.172482,-160.39565
3960000000,-53.26873,-176.6261
3963000000,-53.2509,169.69141
3966000000,-53.28125,155.96234
3969000000,-53.176586,139.3102
3972000000,-53.470226,124.00854
3975000000,-53.639854,109.90135
3978000000,-53.591457,97.308746
3981000000,-53.583389,83.190926
3984000000,-53.507702,67.995834
3987000000,-53.333847,53.98177
3990000000,-53.229725,39.480076
3993000000,-53.185287,24.052271
3996000000,-53.263935,8.8745909
3999000000,-53.113598,-5.9253087
4002000000,-53.283157,-22.200302
4005000000,-53.207645,-35.945763
4008000000,-53.291206,-50.916073
4011000000,-53.366791,-66.045349
4014000000,-53.42841,-81.120399
4017000000,-53.431335,-96.294434
4020000000,-53.43644,-110.99505
4023000000,-53.591904,-127.38464
4026000000,-53.712357,-140.88322
4029000000,-53.690708,-154.67244
4032000000,-53.47179,-170.43713
4035000000,-53.681297,175.07838
4038000000,-53.926788,160.37114
4041000000,-53.840149,146.69247
4044000000,-53.851345,131.50511
4047000000,-53.941292,116.68446
4050000000,-54.152245,101.96056
4053000000,-54.220375,87.667198
4056000000,-54.263836,73.897636
4059000000,-54.146305,59.194855
4062000000,-54.317539,45.707623
4065000000,-54.459408,31.479994
4068000000,-54.405968,18.140232
4071000000,-54.215271,4.4888401
4074000000,-54.202805,-10.801076
4077000000,-54.241741,-25.71484
4080000000,-54.252708,-40.710686
4083000000,-54.025471,-54.619442
4086000000,-54.043812,-70.547729
4089000000,-54.171471,-84.983253
4092000000,-54.033272,-100.10279
4095000000,-53.993855,-113.86898
4098000000,-53.991375,-129.96504
4101000000,-54.170826,-145.7411
4104000000,-54.459846,-159.99074
4107000000,-54.486877,-172.65477
4110000000,-54.561523,173.14487
4113000000,-54.30983,158.6642
4116000000,-54.305618,144.26118
4119000000,-54.390251,130.67383
4122000000,-54.102482,115.34075
4125000000,-54.182819,99.845146
4128000000,-54.201488,85.059418
4131000000,-54.360718,71.350372
4134000000,-54.388649,56.87788
4137000000,-54.171532,43.09153
4140000000,-54.188995,28.258287
4143000000,-54.031509,13.64241
4146000000,-54.040249,-1.8497837
4149000000,-54.3382,-18.427229
4152000000,-54.476311,-31.863785
4155000000,-54.6315,-45.099201
4158000000,-54.45686,-58.417576
4161000000,-54.006977,-73.661972
4164000000,-54.006702,-89.02803
4167000000,-54.120605,-105.46778
4170000000,-54.203861,-119.00211
4173000000,-54.354912,-134.49109
4176000000,-54.48267,-149.49252
4179000000,-54.393272,-162.34009
4182000000,-54.321327,-175.98239
4185000000,-54.050648,169.83374
4188000000,-53.952175,153.80386
4191000000,-53.984047,136.81644
4194000000,-54.177338,122.22756
4197000000,-54.522831,107.39838
4200000000,-54.401024,93.870445
4203000000,-54.394836,78.812569
4206000000,-54.384418,65.41478
4209000000,-54.303684,50.733326
4212000000,-54.257301,35.307541
4215000000,-54.18528,19.27792
4218000000,-54.424297,3.5169866
4221000000,-54.58532,-10.823434
4224000000,-54.717415,-24.125254
4227000000,-54.887074,-38.061462
4230000000,-54.652721,-52.04221
4233000000,-54.687511,-66.603287
4236000000,-54.605553,-81.539093
4239000000,-54.746994,-96.536819
4242000000,-54.876686,-111.49391
4245000000,-55.023273,-124.68944
4248000000,-55.049294,-138.01721
4251000000,-54.869122,-152.61293
4254000000,-54.814175,-166.57961
4257000000,-54.575375,176.7254
4260000000,-54.681225,161.77965
4263000000,-54.932232,147.37997
4266000000,-54.990757,132.58467
4269000000,-55.149471,118.03989
4272000000,-55.070282,104.70721
4275000000,-55.169529,90.90284
4278000000,-54.964413,76.028526
4281000000,-54.763622,61.376312
4284000000,-54.947754,46.056412
4287000000,-55.102913,31.458929
4290000000,-55.119049,18.966665
4293000000,-55.152351,5.1045232
4296000000,-55.107067,-9.523428
4299000000,-54.79987,-23.047932
4302000000,-54.537262,-37.85149
4305000000,-54.497913,-53.348522
4308000000,-54.598202,-69.533012
4311000000,-54.491093,-84.126884
4314000000,-54.459572,-98.231918
4317000000,-54.533527,-114.38403
4320000000,-54.262566,-129.10902
4323000000,-54.425011,-144.35168
4326000000,-54.273666,-158.79146
4329000000,-54.405121,-174.50006
4332000000,-54.655334,169.6154
4335000000,-54.936661,154.85699
4338000000,-54.983105,140.92921
4341000000,-54.936806,128.61249
4344000000,-55.024822,113.62602
4347000000,-55.065559,100.0368
4350000000,-54.663914,86.117821
4353000000,-54.798172,71.496216
4356000000,-54.628036,54.200855
4359000000,-54.570248,40.860504
4362000000,-54.790337,26.943058
4365000000,-54.809189,12.095742
4368000000,-54.399891,-1.7929311
4371000000,-54.526478,-17.622326
4374000000,-54.63829,-33.452888
4377000000,-54.484272,-47.228592
4380000000,-54.616428,-61.741474
4383000000,-54.684326,-77.405418
4386000000,-54.772141,-91.206955
4389000000,-54.732899,-106.07504
4392000000,-54.587429,-119.93139
4395000000,-54.531662,-134.75844
4398000000,-54.561649,-149.88556
4401000000,-54.578217,-164.51764
4404000000,-54.565727,-178.94711
4407000000,-54.48032,165.53882
4410000000,-54.364002,150.35124
4413000000,-54.589249,136.31587
4416000000,-54.427853,122.23887
4419000000,-54.43792,107.34996
4422000000,-54.385033,91.892456
4425000000,-54.289776,75.880623
4428000000,-54.504627,61.477924
4431000000,-54.61869,45.998646
4434000000,-54.634388,31.701271
4437000000,-54.638,17.646463
4440000000,-54.448231,2.0629504
4443000000,-54.450378,-12.169831
4446000000,-54.438324,-27.449066
4449000000,-54.491444,-43.552464
4452000000,-54.627998,-56.812977
4455000000,-54.630394,-71.303787
4458000000,-54.617264,-86.660065
4461000000,-54.569294,-101.71952
4464000000,-54.726028,-116.22042
4467000000,-54.892044,-131.38806
4470000000,-55.044781,-147.08133
4473000000,-55.035282,-161.69312
4476000000,-55.13591,-177.05367
4479000000,-55.24614,171.60074
4482000000,-55.180958,157.13339
4485000000,-55.029442,143.07977
4488000000,-55.109039,128.06264
4491000000,-55.154335,113.79872
4494000000,-55.038624,99.514702
4497000000,-54.953384,85.377647
4500000000,-54.891865,69.098595
4503000000,-54.888496,54.660484
4506000000,-55.125393,39.551186
4509000000,-55.105694,26.173935
4512000000,-55.082672,11.439998
4515000000,-55.1595,-4.2227273
4518000000,-55.315254,-18.310648
4521000000,-55.265392,-32.640034
4524000000,-55.292988,-44.999165
4527000000,-55.100098,-60.53833
4530000000,-55.09679,-76.191154
4533000000,-55.085392,-89.847862
4536000000,-54.982403,-103.6975
4539000000,-54.925957,-118.9056
4542000000,-54.842354,-134.25052
4545000000,-54.72311,-149.97244
4548000000,-54.640968,-164.52455
4551000000,-54.70718,-179.127
4554000000,-54.797375,165.4252
4557000000,-54.967106,149.66747
4560000000,-54.926628,135.96245
4563000000,-54.856327,119.8998
4566000000,-55.058895,104.69691
4569000000,-55.049614,90.337738
4572000000,-55.028927,76.66658
4575000000,-55.043808,63.481522
4578000000,-55.08672,47.68885
4581000000,-54.890648,31.152859
4584000000,-54.978222,18.217106
4587000000,-55.14645,3.5880389
4590000000,-55.159298,-12.215489
4593000000,-55.029984,-25.949341
4596000000,-54.935253,-42.145859
4599000000,-55.01215,-56.957516
4602000000,-55.170208,-72.873398
4605000000,-55.170113,-87.174522
4608000000,-55.319973,-102.62352
4611000000,-55.580891,-116.40176
4614000000,-55.365402,-130.3419
4617000000,-55.427906,-145.45091
4620000000,-55.602535,-160.75653
4623000000,-55.719868,-173.77824
4626000000,-55.706966,171.73349
4629000000,-55.796921,156.93282
4632000000,-55.777878,142.66663
4635000000,-55.837635,127.68526
4638000000,-55.613171,114.47517
4641000000,-55.67889,100.38238
4644000000,-55.579449,86.073143
4647000000,-55.582642,69.838737
4650000000,-55.693863,55.849949
4653000000,-55.563305,42.175846
4656000000,-55.802906,26.837576
4659000000,-55.565189,13.518498
4662000000,-55.700573,-0.64993608
4665000000,-55.348743,-15.790604
4668000000,-55.491241,-30.523678
4671000000,-55.35424,-47.348053
4674000000,-55.299892,-61.190907
4677000000,-55.503025,-76.770439
4680000000,-55.448055,-90.873062
4683000000,-55.448215,-105.31273
4686000000,-55.457153,-119.76808
4689000000,-55.504044,-135.48648
4692000000,-55.431309,-151.73271
4695000000,-55.580505,-165.79944
4698000000,-55.646137,-179.87862
4701000000,-55.735191,165.72191
4704000000,-55.937431,153.91512
4707000000,-55.741196,138.99333
4710000000,-55.466694,124.78484
4713000000,-55.437798,110.76574
4716000000,-55.379932,94.528084
4719000000,-55.089851,78.717613
4722000000,-55.251255,63.412415
4725000000,-55.373566,48.616379
4728000000,-55.301445,33.406075
4731000000,-55.194801,18.983192
4734000000,-55.311028,3.0611775
4737000000,-55.337162,-11.997261
4740000000,-55.14983,-27.510303
4743000000,-55.510487,-42.326111
4746000000,-55.373627,-58.54533
4749000000,-55.805206,-73.505959
4752000000,-55.96838,-87.480057
4755000000,-55.938801,-102.03953
4758000000,-55.783043,-114.05388
4761000000,-55.733116,-131.23473
4764000000,-55.942421,-145.69243
4767000000,-55.990295,-157.85551
4770000000,-55.880402,-173.25023
4773000000,-56.053665,171.17656
4776000000,-56.20224,157.09245
4779000000,-56.118679,143.00635
4782000000,-55.866451,129.09186
4785000000,-55.727161,114.4254
4788000000,-55.838909,99.535858
4791000000,-55.828201,85.247482
4794000000,-55.970333,69.187096
4797000000,-55.988525,54.70137
4800000000,-55.805748,39.934002
4803000000,-56.060249,25.358725
4806000000,-55.894978,10.443577
4809000000,-55.757706,-4.1529098
4812000000,-55.690125,-19.883228
4815000000,-55.963928,-36.256958
4818000000,-56.040497,-49.825714
4821000000,-56.047981,-65.293961
4824000000,-56.122753,-79.216103
4827000000,-56.159447,-93.869911
4830000000,-56.113255,-106.72122
4833000000,-56.247101,-122.4187
4836000000,-56.299221,-138.65012
4839000000,-56.508549,-152.31007
4842000000,-56.365849,-166.0468
4845000000,-56.553677,-179.21278
4848000000,-56.151562,168.41464
4851000000,-56.011765,151.287
4854000000,-56.227905,137.00749
4857000000,-55.992039,120.60814
4860000000,-56.058353,105.46752
4863000000,-55.851051,90.62719
4866000000,-56.145432,74.846794
4869000000,-56.175838,60.02483
4872000000,-56.121563,46.630814
4875000000,-56.275806,30.7572
4878000000,-56.27639,14.015335
4881000000,-56.463379,-0.60544395
4884000000,-56.691799,-13.961494
4887000000,-56.712135,-27.779387
4890000000,-56.78957,-44.518433
4893000000,-56.95359,-56.473827
4896000000,-56.84103,-70.725014
4899000000,-56.555096,-85.846275
4902000000,-56.697216,-101.30015
4905000000,-56.968891,-115.6751
4908000000,-56.888474,-129.71747
4911000000,-56.713577,-143.02994
4914000000,-56.901192,-157.18744
4917000000,-56.713905,-173.34445
4920000000,-56.794189,173.17033
4923000000,-56.763573,157.15349
4926000000,-56.688488,143.67177
4929000000,-56.852627,127.50157
4932000000,-57.072021,114.99837
4935000000,-56.915894,100.6023
4938000000,-57.05727,84.93618
4941000000,-56.984703,70.867332
4944000000,-56.886028,56.453835
4947000000,-57.034748,42.145435
4950000000,-57.179192,26.467596
4953000000,-57.008533,13.054846
4956000000,-57.014343,-3.1273551
4959000000,-56.95718,-16.584166
4962000000,-56.717789,-31.24243
4965000000,-56.714554,-45.654366
4968000000,-56.646336,-61.313549
4971000000,-57.120586,-74.278877
4974000000,-57.206379,-89.122345
4977000000,-56.75079,-103.91934
4980000000,-56.999905,-118.16529
4983000000,-56.754807,-131.88788
4986000000,-56.840664,-148.39732
4989000000,-56.804348,-162.29015
4992000000,-56.739872,-176.88571
4995000000,-57.000275,168.3044
4998000000,-57.016647,152.13048
5001000000,-56.952168,139.22183
5004000000,-56.398087,125.34653
5007000000,-56.520317,107.96173
5010000000,-56.667377,92.264786
5013000000,-57.087387,76.164825
5016000000,-57.188465,62.217648
5019000000,-57.065971,47.137566
5022000000,-57.081223,33.219482
5025000000,-57.199951,20.327692
5028000000,-57.208103,5.3972731
5031000000,-56.952789,-9.0554123
5034000000,-56.874989,-24.793798
5037000000,-56.777084,-39.895355
5040000000,-57.122345,-53.837772
5043000000,-57.118191,-67.982071
5046000000,-57.018333,-83.060173
5049000000,-56.986393,-98.861938
5052000000,-56.853703,-112.67947
5055000000,-56.692944,-126.05829
5058000000,-56.790722,-142.69443
5061000000,-56.845966,-159.68483
5064000000,-57.09795,-174.20592
5067000000,-57.282471,172.31462
5070000000,-57.108868,156.84529
5073000000,-57.247414,142.33997
5076000000,-57.471416,121.56351
5079000000,-57.247646,108.41732
5082000000,-57.607254,93.708412
5085000000,-57.302715,79.612823
5088000000,-57.548019,62.97356
5091000000,-57.779346,48.18948
5094000000,-57.598568,32.812874
5097000000,-57.756454,20.609381
5100000000,-57.774002,7.3804412
5103000000,-57.862202,-8.3040142
5106000000,-57.862537,-23.393009
5109000000,-57.586941,-39.198349
5112000000,-57.839622,-52.26104
5115000000,-57.916447,-65.756943
5118000000,-57.987537,-79.261993
5121000000,-57.635159,-95.427116
5124000000,-57.864983,-108.88701
5127000000,-58.114239,-126.2897
5130000000,-57.633434,-139.5442
5133000000,-57.740158,-153.74123
5136000000,-57.332203,-170.72711
5139000000,-57.938004,174.53572
5142000000,-57.992744,158.9352
5145000000,-57.95179,146.86778
5148000000,-57.825821,130.11026
5151000000,-57.651756,114.68983
5154000000,-58.012035,100.61518
5157000000,-58.148041,86.316124
5160000000,-58.333279,72.351738
5163000000,-58.096649,58.541367
5166000000,-58.40987,43.351788
5169000000,-58.277397,31.383648
5172000000,-58.170185,14.674873
5175000000,-58.011425,1.0349267
5178000000,-58.223759,-14.18656
5181000000,-58.559383,-28.880672
5184000000,-58.43969,-43.501854
5187000000,-58.08334,-56.922787
5190000000,-58.671635,-72.169289
5193000000,-58.409306,-86.567001
5196000000,-58.237843,-100.84879
5199000000,-58.191853,-115.26273
5202000000,-58.239883,-131.20972
5205000000,-58.476372,-146.51195
5208000000,-58.284607,-160.86256
5211000000,-58.465454,-173.6552
5214000000,-58.32505,169.12454
5217000000,-58.805168,156.87962
5220000000,-58.468555,139.75899
5223000000,-58.398186,126.95434
5226000000,-58.330563,112.44922
5229000000,-58.560925,97.278854
5232000000,-58.702206,86.000717
5235000000,-58.410995,73.767822
5238000000,-58.341816,59.449665
5241000000,-58.363205,42.569218
5244000000,-58.429031,28.336969
5247000000,-58.077938,12.034579
5250000000,-58.057022,-1.6035763
5253000000,-57.582481,-18.103735
5256000000,-57.622883,-33.043617
5259000000,-57.756802,-47.399246
5262000000,-57.947601,-63.41748
5265000000,-57.594181,-76.407738
5268000000,-57.821365,-93.729637
5271000000,-57.842972,-108.11933
5274000000,-57.588402,-123.95141
5277000000,-57.990692,-139.16736
5280000000,-57.601849,-153.12065
5283000000,-58.022339,-169.11238
5286000000,-57.771835,177.91435
5289000000,-57.996124,163.38974
5292000000,-57.822048,146.93193
5295000000,-58.058224,132.37421
5298000000,-58.049023,117.07191
5301000000,-57.991367,105.42208
5304000000,-58.217175,88.584518
5307000000,-57.955498,72.214836
5310000000,-57.930141,59.172028
5313000000,-58.208946,43.930969
5316000000,-58.020115,27.26255
5319000000,-58.163853,15.143682
5322000000,-57.970638,-1.1966239
5325000000,-57.956127,-17.438929
5328000000,-58.200367,-31.272383
5331000000,-58.15958,-48.109127
5334000000,-58.743587,-63.391293
5337000000,-58.523693,-77.105545
5340000000,-58.400013,-90.425102
5343000000,-58.4361,-108.21095
5346000000,-58.504669,-123.2215
5349000000,-59.251423,-134.35008
5352000000,-58.947704,-150.0479
5355000000,-59.21413,-163.18576
5358000000,-59.294197,-176.18091
5361000000,-59.129955,170.35574
5364000000,-59.298309,156.50433
5367000000,-59.159229,140.7137
5370000000,-59.225204,126.88713
5373000000,-59.229332,113.98401
5376000000,-59.419975,97.557243
5379000000,-59.11974,83.35717
5382000000,-59.116791,70.319336
5385000000,-59.323856,55.434494
5388000000,-59.338306,45.455624
5391000000,-59.138569,26.265244
5394000000,-58.978519,14.356297
5397000000,-59.020153,-1.55246
5400000000,-59.069607,-16.562796
5403000000,-58.707951,-30.162529
5406000000,-58.654438,-47.100285
5409000000,-58.472618,-56.19408
5412000000,-58.900486,-73.571808
5415000000,-58.577156,-88.061996
5418000000,-58.439568,-103.45662
5421000000,-58.251167,-119.39228
5424000000,-58.418961,-133.05132
5427000000,-58.205624,-149.8248
5430000000,-58.099319,-164.44545
5433000000,-58.110729,-179.39566
5436000000,-58.091438,167.06505
5439000000,-58.138618,150.56155
5442000000,-57.862915,136.94888
5445000000,-57.961376,119.21806
5448000000,-58.08757,105.58927
5451000000,-58.294106,88.84198
5454000000,-57.786808,75.26593
5457000000,-57.714489,61.365547
5460000000,-58.029217,44.638229
5463000000,-57.617016,26.300425
5466000000,-58.079346,12.209888
5469000000,-58.062283,-5.3133893
5472000000,-58.259312,-20.287191
5475000000,-58.133022,-37.421314
5478000000,-58.352306,-50.092567
5481000000,-58.831814,-61.752171
5484000000,-58.912605,-78.047768
5487000000,-58.750561,-93.18689
5490000000,-59.026772,-108.36349
5493000000,-59.043007,-122.86649
5496000000,-58.912827,-139.80711
5499000000,-59.609646,-153.52563
5502000000,-59.180256,-166.86063
5505000000,-59.477741,-179.90213
5508000000,-59.491688,167.34734
5511000000,-59.272678,151.11668
5514000000,-59.318726,137.3698
5517000000,-59.726028,121.50528
5520000000,-59.527714,109.1698
5523000000,-59.85701,92.987579
5526000000,-59.681034,78.614075
5529000000,-59.809139,68.392059
5532000000,-59.548637,52.383141
5535000000,-59.64782,35.015472
5538000000,-60.265652,22.483488
5541000000,-59.965561,6.4768558
5544000000,-59.684361,-7.131804
5547000000,-59.657253,-21.302309
5550000000,-60.281025,-33.519039
5553000000,-59.744583,-52.665878
5556000000,-59.421356,-65.828613
5559000000,-59.537266,-78.634926
5562000000,-59.458462,-93.977257
5565000000,-59.274738,-111.09498
5568000000,-59.554817,-123.57319
5571000000,-59.493389,-138.88023
5574000000,-59.338223,-152.97713
5577000000,-59.199532,-167.10698
5580000000,-59.415955,177.02173
5583000000,-59.136272,165.16695
5586000000,-58.981663,145.43675
5589000000,-58.761082,129.07346
5592000000,-58.788044,115.78553
5595000000,-58.991543,102.06012
5598000000,-59.174271,85.320747
5601000000,-59.224705,69.54924
5604000000,-59.172443,57.314194
5607000000,-59.059158,41.361839
5610000000,-59.135487,26.136341
5613000000,-59.275803,7.6178827
5616000000,-59.717571,-7.2894459
5619000000,-59.545574,-20.892242
5622000000,-59.642353,-35.124363
5625000000,-59.818424,-47.854237
5628000000,-59.717407,-65.960686
5631000000,-59.590595,-80.051064
5634000000,-59.688084,-93.103157
5637000000,-60.05299,-107.26883
5640000000,-60.432549,-121.90218
5643000000,-60.311745,-135.75633
5646000000,-60.09853,-151.14462
5649000000,-60.166401,-165.64847
5652000000,-60.172661,178.37405
5655000000,-60.743767,159.64143
5658000000,-60.713669,145.60272
5661000000,-60.730255,132.89885
5664000000,-61.062843,120.14508
5667000000,-60.710819,103.65005
5670000000,-60.558277,88.355156
5673000000,-61.423382,73.651215
5676000000,-61.144318,60.794502
5679000000,-60.493721,45.17416
5682000000,-60.963917,29.81452
5685000000,-61.302246,17.425089
5688000000,-60.926079,-0.033612844
5691000000,-61.299393,-12.326225
5694000000,-60.673676,-25.594088
5697000000,-61.13092,-41.548199
5700000000,-61.424713,-53.263512
5703000000,-60.576397,-68.387642
5706000000,-61.08717,-87.423401
5709000000,-61.376499,-99.257751
5712000000,-61.025219,-114.64
5715000000,-60.699333,-127.72221
5718000000,-60.626846,-142.92778
5721000000,-61.662109,-160.2413
5724000000,-61.047462,-176.42941
5727000000,-61.201431,169.51335
5730000000,-61.695259,157.2469
5733000000,-61.371162,136.9109
5736000000,-61.715038,126.17587
5739000000,-61.919395,113.08591
5742000000,-61.908836,99.900101
5745000000,-62.480034,84.948387
5748000000,-61.838608,68.702087
5751000000,-62.298992,52.562073
5754000000,-62.49427,43.112648
5757000000,-62.583027,26.932459
5760000000,-62.546776,15.038389
5763000000,-62.603973,0.84605742
5766000000,-62.342243,-12.956134
5769000000,-62.484852,-29.942867
5772000000,-62.683994,-43.461372
5775000000,-62.510654,-59.234982
5778000000,-61.992207,-70.89917
5781000000,-62.679337,-83.530235
5784000000,-62.793209,-98.025879
5787000000,-62.277077,-117.74136
5790000000,-62.776966,-129.71547
5793000000,-62.652546,-146.76228
5796000000,-62.412289,-160.07411
5799000000,-63.07029,-176.91515
5802000000,-62.40583,171.48494
5805000000,-62.427437,157.71512
5808000000,-62.776932,141.43967
5811000000,-62.699173,127.41658
5814000000,-62.322971,112.73794
5817000000,-62.695377,97.068375
5820000000,-62.59248,82.498512
5823000000,-62.656982,71.75267
5826000000,-62.885914,52.849892
5829000000,-63.206852,39.771915
5832000000,-62.046623,26.895231
5835000000,-62.029377,9.4059849
5838000000,-63.030712,-2.9541965
5841000000,-62.624134,-17.381519
5844000000,-62.589775,-31.169134
5847000000,-62.754337,-48.596165
5850000000,-62.814426,-64.731674
5853000000,-62.296696,-77.281464
5856000000,-62.583023,-93.755379
5859000000,-62.267223,-106.56873
5862000000,-62.536655,-125.28979
5865000000,-62.938911,-136.9726
5868000000,-63.154797,-154.09724
5871000000,-63.655624,-169.00099
5874000000,-63.54351,179.64413
5877000000,-62.577175,167.81911
5880000000,-62.986565,150.87021
5883000000,-63.442204,137.74113
5886000000,-63.683258,120.49905
5889000000,-63.205383,110.59428
5892000000,-63.21711,95.906624
5895000000,-63.891193,81.146591
5898000000,-62.835331,65.291176
5901000000,-63.899479,52.445072
5904000000,-62.740337,34.494274
5907000000,-63.807423,23.816359
5910000000,-63.606522,7.9536972
5913000000,-62.858082,-8.9160519
5916000000,-63.679142,-22.781311
5919000000,-63.607239,-39.046749
5922000000,-63.251678,-53.039566
5925000000,-63.878895,-65.685974
5928000000,-63.623898,-80.262131
5931000000,-63.964619,-94.945221
5934000000,-63.264965,-113.9667
5937000000,-63.738926,-124.64441
5940000000,-64.131653,-137.21365
5943000000,-63.963192,-153.38676
5946000000,-64.42028,-165.14613
5949000000,-64.04126,176.29984
5952000000,-63.975765,169.50226
5955000000,-63.914234,146.24191
5958000000,-65.118721,136.88362
5961000000,-64.916908,120.92664
5964000000,-64.239647,113.07987
5967000000,-64.086281,97.045883
5970000000,-64.306381,80.32502
5973000000,-63.896217,63.31543
5976000000,-64.484787,44.41391
5979000000,-64.486557,29.961578
5982000000,-64.388176,23.206539
5985000000,-64.43821,6.644876
5988000000,-64.157967,-6.8911386
5991000000,-63.788494,-22.556774
5994000000,-63.504967,-37.499908
5997000000,-63.86451,-47.626587
6000000000,-63.730339,-67.715988
END

