!CSV A.01.01
!Keysight Technologies,N5227B,US58420762,A.13.80.08
!Date: Monday, November 20, 2023 16:24:20
!Source: Standard

BEGIN CH1_DATA
Time(s),S21(DB),S21(DEG)
1e-008,-120.50537,113.30008
1.001e-008,-120.39627,131.334
1.002e-008,-120.31512,149.25421
1.003e-008,-120.26166,167.07672
1.004e-008,-120.23745,-175.18179
1.005e-008,-120.24266,-157.51094
1.006e-008,-120.27842,-139.89197
1.007e-008,-120.34424,-122.31583
1.008e-008,-120.44135,-104.76693
1.009e-008,-120.56895,-87.234306
1.01e-008,-120.72866,-69.701607
1.011e-008,-120.91987,-52.159767
1.012e-008,-121.14287,-34.590839
1.013e-008,-121.39738,-16.984486
1.014e-008,-121.68431,0.68156892
1.015e-008,-122.00264,18.420168
1.016e-008,-122.35211,36.252052
1.017e-008,-122.73233,54.194836
1.018e-008,-123.14156,72.279594
1.019e-008,-123.5787,90.525726
1.02e-008,-124.04019,108.95853
1.021e-008,-124.52384,127.60892
1.022e-008,-125.02296,146.50877
1.023e-008,-125.5323,165.67931
1.024e-008,-126.04314,-174.85786
1.025e-008,-126.54555,-155.09105
1.026e-008,-127.0262,-135.02113
1.027e-008,-127.47353,-114.67774
1.028e-008,-127.87305,-94.116821
1.029e-008,-128.21397,-73.409393
1.03e-008,-128.48518,-52.67659
1.031e-008,-128.68471,-32.027988
1.032e-008,-128.81297,-11.600839
1.033e-008,-128.87585,8.5019493
1.034e-008,-128.88362,28.166262
1.035e-008,-128.84618,47.346569
1.036e-008,-128.77803,65.994354
1.037e-008,-128.6871,84.096466
1.038e-008,-128.58423,101.65263
1.039e-008,-128.47433,118.67932
1.04e-008,-128.36263,135.19832
1.041e-008,-128.24983,151.24072
1.042e-008,-128.1385,166.83124
1.043e-008,-128.02597,-177.99452
1.044e-008,-127.91124,-163.19485
1.045e-008,-127.79095,-148.7356
1.046e-008,-127.66367,-134.57236
1.047e-008,-127.52602,-120.65862
1.048e-008,-127.3763,-106.94801
1.049e-008,-127.21286,-93.395195
1.05e-008,-127.03658,-79.945427
1.051e-008,-126.84763,-66.559433
1.052e-008,-126.64738,-53.187214
1.053e-008,-126.43942,-39.797741
1.054e-008,-126.22639,-26.356749
1.055e-008,-126.0126,-12.841212
1.056e-008,-125.80138,0.76743942
1.057e-008,-125.59756,14.480348
1.058e-008,-125.40459,28.304308
1.059e-008,-125.22622,42.239624
1.06e-008,-125.06499,56.289349
1.061e-008,-124.92536,70.445175
1.062e-008,-124.80984,84.703835
1.063e-008,-124.72007,99.054306
1.064e-008,-124.65863,113.48969
1.065e-008,-124.62807,127.99867
1.066e-008,-124.62946,142.57619
1.067e-008,-124.66572,157.20627
1.068e-008,-124.73755,171.88072
1.069e-008,-124.84695,-173.41458
1.07e-008,-124.99595,-158.68805
1.071e-008,-125.18624,-143.9521
1.072e-008,-125.42024,-129.2213
1.073e-008,-125.69933,-114.51278
1.074e-008,-126.02606,-99.840256
1.075e-008,-126.40316,-85.221306
1.076e-008,-126.83379,-70.68338
1.077e-008,-127.32046,-56.247787
1.078e-008,-127.86716,-41.948132
1.079e-008,-128.47758,-27.829027
1.08e-008,-129.1557,-13.936986
1.081e-008,-129.90631,-0.3394632
1.082e-008,-130.73221,12.886083
1.083e-008,-131.6356,25.624979
1.084e-008,-132.61853,37.725674
1.085e-008,-133.67371,49.017227
1.086e-008,-134.78584,59.272839
1.087e-008,-135.91872,68.231239
1.088e-008,-137.01732,75.683914
1.089e-008,-137.98184,81.582436
1.09e-008,-138.71361,86.275818
1.091e-008,-139.13322,90.541115
1.092e-008,-139.25214,95.346931
1.093e-008,-139.15445,101.48499
1.094e-008,-138.95613,109.24604
1.095e-008,-138.76056,118.63032
1.096e-008,-138.64671,129.43152
1.097e-008,-138.66556,141.42662
1.098e-008,-138.86021,154.46979
1.099e-008,-139.26686,168.41637
1.1e-008,-139.94496,-176.74791
1.101e-008,-140.96698,-160.85789
1.102e-008,-142.46359,-143.44943
1.103e-008,-144.68024,-123.25829
1.104e-008,-148.00533,-96.087975
1.105e-008,-152.21008,-45.512939
1.106e-008,-150.3757,28.623428
1.107e-008,-145.21892,68.88295
1.108e-008,-141.33334,93.630402
1.109e-008,-138.41388,113.68575
1.11e-008,-136.09334,131.91296
1.111e-008,-134.17542,149.26324
1.112e-008,-132.54639,166.1411
1.113e-008,-131.13969,-177.24556
1.114e-008,-129.90819,-160.78467
1.115e-008,-128.82124,-144.42729
1.116e-008,-127.85715,-128.13177
1.117e-008,-126.99801,-111.86649
1.118e-008,-126.2335,-95.620766
1.119e-008,-125.55238,-79.374657
1.12e-008,-124.94744,-63.12413
1.121e-008,-124.41382,-46.861408
1.122e-008,-123.94624,-30.581446
1.123e-008,-123.54074,-14.272119
1.124e-008,-123.19557,2.0632687
1.125e-008,-122.90815,18.439808
1.126e-008,-122.67731,34.859116
1.127e-008,-122.50251,51.328167
1.128e-008,-122.38348,67.853508
1.129e-008,-122.32047,84.451736
1.13e-008,-122.314,101.1299
1.131e-008,-122.366,117.90438
1.132e-008,-122.47954,134.7944
1.133e-008,-122.65556,151.82423
1.134e-008,-122.89878,169.02632
1.135e-008,-123.21367,-173.56097
1.136e-008,-123.6055,-155.87663
1.137e-008,-124.08027,-137.84531
1.138e-008,-124.64524,-119.36977
1.139e-008,-125.30708,-100.29204
1.14e-008,-126.07068,-80.407173
1.141e-008,-126.93537,-59.403816
1.142e-008,-127.88291,-36.867649
1.143e-008,-128.85814,-12.240456
1.144e-008,-129.7397,15.004538
1.145e-008,-130.31256,44.943775
1.146e-008,-130.34315,76.524857
1.147e-008,-129.75708,107.63883
1.148e-008,-128.71629,136.51492
1.149e-008,-127.46492,162.6192
1.15e-008,-126.17788,-173.69997
1.151e-008,-124.9458,-151.87068
1.152e-008,-123.8036,-131.3912
1.153e-008,-122.76047,-111.88928
1.154e-008,-121.81286,-93.102272
1.155e-008,-120.95464,-74.850571
1.156e-008,-120.17749,-57.002705
1.157e-008,-119.47416,-39.46701
1.158e-008,-118.83752,-22.177795
1.159e-008,-118.26191,-5.086277
1.16e-008,-117.7422,11.844494
1.161e-008,-117.27383,28.644409
1.162e-008,-116.85294,45.334255
1.163e-008,-116.47655,61.931278
1.164e-008,-116.14148,78.450073
1.165e-008,-115.84559,94.90155
1.166e-008,-115.58653,111.29403
1.167e-008,-115.36269,127.63567
1.168e-008,-115.17241,143.93408
1.169e-008,-115.01399,160.19226
1.17e-008,-114.88644,176.41652
1.171e-008,-114.78874,-167.38916
1.172e-008,-114.71951,-151.2198
1.173e-008,-114.67816,-135.07414
1.174e-008,-114.66365,-118.94804
1.175e-008,-114.67556,-102.83766
1.176e-008,-114.71287,-86.739937
1.177e-008,-114.77522,-70.651711
1.178e-008,-114.8618,-54.569691
1.179e-008,-114.97234,-38.489208
1.18e-008,-115.10598,-22.407484
1.181e-008,-115.26233,-6.3186483
1.182e-008,-115.4409,9.7804317
1.183e-008,-115.64111,25.897476
1.184e-008,-115.86224,42.037663
1.185e-008,-116.10394,58.207264
1.186e-008,-116.36527,74.416679
1.187e-008,-116.64577,90.673775
1.188e-008,-116.94406,106.98791
1.189e-008,-117.2597,123.37312
1.19e-008,-117.59126,139.84009
1.191e-008,-117.93744,156.40732
1.192e-008,-118.29635,173.08658
1.193e-008,-118.6663,-170.10193
1.194e-008,-119.04472,-153.13974
1.195e-008,-119.42843,-136.0052
1.196e-008,-119.81422,-118.6824
1.197e-008,-120.1978,-101.14621
1.198e-008,-120.57427,-83.383064
1.199e-008,-120.93759,-65.375122
1.2e-008,-121.28131,-47.116917
1.201e-008,-121.59853,-28.603664
1.202e-008,-121.88175,-9.8467817
1.203e-008,-122.12362,9.1338215
1.204e-008,-122.31804,28.302511
1.205e-008,-122.45963,47.617256
1.206e-008,-122.54597,67.024582
1.207e-008,-122.57585,86.465012
1.208e-008,-122.55185,105.88149
1.209e-008,-122.47765,125.22399
1.21e-008,-122.35975,144.448
1.211e-008,-122.2054,163.52205
1.212e-008,-122.02296,-177.56604
1.213e-008,-121.81949,-158.82852
1.214e-008,-121.60318,-140.25717
1.215e-008,-121.3802,-121.8442
1.216e-008,-121.15659,-103.57032
1.217e-008,-120.93747,-85.415741
1.218e-008,-120.727,-67.360542
1.219e-008,-120.5284,-49.379139
1.22e-008,-120.34438,-31.446461
1.221e-008,-120.17718,-13.540668
1.222e-008,-120.02814,4.3615685
1.223e-008,-119.89828,22.285431
1.224e-008,-119.78831,40.253525
1.225e-008,-119.69812,58.28643
1.226e-008,-119.62755,76.408798
1.227e-008,-119.57606,94.640831
1.228e-008,-119.54157,113.00526
1.229e-008,-119.52273,131.52393
1.23e-008,-119.51627,150.21503
1.231e-008,-119.51965,169.09654
1.232e-008,-119.52832,-171.81451
1.233e-008,-119.53749,-152.51106
1.234e-008,-119.54148,-132.98477
1.235e-008,-119.53435,-113.23838
1.236e-008,-119.50923,-93.288719
1.237e-008,-119.46013,-73.154327
1.238e-008,-119.38094,-52.871433
1.239e-008,-119.26717,-32.484226
1.24e-008,-119.11558,-12.047761
1.241e-008,-118.92517,8.3835592
1.242e-008,-118.69695,28.749998
1.243e-008,-118.43389,48.998791
1.244e-008,-118.14127,69.083694
1.245e-008,-117.82403,88.969238
1.246e-008,-117.48933,108.63038
1.247e-008,-117.1434,128.05283
1.248e-008,-116.79258,147.23038
1.249e-008,-116.44256,166.16479
1.25e-008,-116.09853,-175.1373
1.251e-008,-115.76466,-156.66342
1.252e-008,-115.44473,-138.40285
1.253e-008,-115.14155,-120.34134
1.254e-008,-114.85762,-102.46368
1.255e-008,-114.59486,-84.75631
1.256e-008,-114.35496,-67.206139
1.257e-008,-114.13893,-49.801426
1.258e-008,-113.94814,-32.530518
1.259e-008,-113.78301,-15.383975
1.26e-008,-113.64429,1.6481431
1.261e-008,-113.53289,18.572197
1.262e-008,-113.4491,35.39576
1.263e-008,-113.39318,52.124477
1.264e-008,-113.36589,68.762756
1.265e-008,-113.36767,85.315048
1.266e-008,-113.3989,101.78422
1.267e-008,-113.46017,118.17142
1.268e-008,-113.55191,134.48
1.269e-008,-113.67489,150.70821
1.27e-008,-113.82985,166.85652
1.271e-008,-114.01744,-177.07687
1.272e-008,-114.23855,-161.09335
1.273e-008,-114.49421,-145.19865
1.274e-008,-114.78558,-129.39565
1.275e-008,-115.11371,-113.69198
1.276e-008,-115.47985,-98.094757
1.277e-008,-115.88599,-82.614952
1.278e-008,-116.33332,-67.264229
1.279e-008,-116.82372,-52.05846
1.28e-008,-117.35908,-37.016598
1.281e-008,-117.9417,-22.1623
1.282e-008,-118.57336,-7.5228581
1.283e-008,-119.25637,6.8648949
1.284e-008,-119.99224,20.95569
1.285e-008,-120.78269,34.696045
1.286e-008,-121.62779,48.020229
1.287e-008,-122.52663,60.844837
1.288e-008,-123.47456,73.069176
1.289e-008,-124.46362,84.581749
1.29e-008,-125.47784,95.262146
1.291e-008,-126.49277,104.99312
1.292e-008,-127.47269,113.70841
1.293e-008,-128.37282,121.42986
1.294e-008,-129.14644,128.32446
1.295e-008,-129.75871,134.71979
1.296e-008,-130.20325,141.02783
1.297e-008,-130.50491,147.64845
1.298e-008,-130.71167,154.84328
1.299e-008,-130.88289,162.67967
1.3e-008,-131.07004,171.08264
1.301e-008,-131.31796,179.84705
1.302e-008,-131.6591,-171.30702
1.303e-008,-132.11372,-162.74792
1.304e-008,-132.68672,-154.9548
1.305e-008,-133.35631,-148.53114
1.306e-008,-134.04457,-144.19708
1.307e-008,-134.57889,-142.51747
1.308e-008,-134.69099,-143.23184
1.309e-008,-134.16516,-144.5919
1.31e-008,-133.04457,-144.19862
1.311e-008,-131.58499,-140.73611
1.312e-008,-130.02888,-134.25951
1.313e-008,-128.5161,-125.39032
1.314e-008,-127.10529,-114.75151
1.315e-008,-125.81143,-102.83289
1.316e-008,-124.63403,-89.966156
1.317e-008,-123.56421,-76.392113
1.318e-008,-122.59254,-62.27039
1.319e-008,-121.70942,-47.713375
1.32e-008,-120.9059,-32.804577
1.321e-008,-120.17455,-17.602209
1.322e-008,-119.50839,-2.1520159
1.323e-008,-118.90168,13.514935
1.324e-008,-118.34924,29.373144
1.325e-008,-117.84652,45.404057
1.326e-008,-117.38941,61.592087
1.327e-008,-116.97444,77.927689
1.328e-008,-116.59789,94.399979
1.329e-008,-116.25696,111.00308
1.33e-008,-115.94834,127.73219
1.331e-008,-115.66942,144.58104
1.332e-008,-115.41744,161.54666
1.333e-008,-115.18974,178.62529
1.334e-008,-114.98371,-164.18828
1.335e-008,-114.79668,-146.89684
1.336e-008,-114.62595,-129.50688
1.337e-008,-114.46928,-112.02372
1.338e-008,-114.32391,-94.456306
1.339e-008,-114.18734,-76.812263
1.34e-008,-114.05739,-59.10154
1.341e-008,-113.93182,-41.33725
1.342e-008,-113.80865,-23.531626
1.343e-008,-113.68607,-5.7004704
1.344e-008,-113.56243,12.139086
1.345e-008,-113.43698,29.969717
1.346e-008,-113.3084,47.774815
1.347e-008,-113.17658,65.53492
1.348e-008,-113.04106,83.231262
1.349e-008,-112.90221,100.84862
1.35e-008,-112.76053,118.36837
1.351e-008,-112.61632,135.77756
1.352e-008,-112.47069,153.06165
1.353e-008,-112.3244,170.2084
1.354e-008,-112.17847,-172.79135
1.355e-008,-112.03369,-155.94647
1.356e-008,-111.89082,-139.26385
1.357e-008,-111.75065,-122.74791
1.358e-008,-111.61369,-106.40327
1.359e-008,-111.48007,-90.231537
1.36e-008,-111.35023,-74.233765
1.361e-008,-111.22393,-58.409962
1.362e-008,-111.10079,-42.759239
1.363e-008,-110.98058,-27.2791
1.364e-008,-110.86237,-11.963627
1.365e-008,-110.74555,3.1906335
1.366e-008,-110.62906,18.190737
1.367e-008,-110.51192,33.045151
1.368e-008,-110.39317,47.763584
1.369e-008,-110.27153,62.356327
1.37e-008,-110.14616,76.836769
1.371e-008,-110.01622,91.219093
1.372e-008,-109.881,105.51781
1.373e-008,-109.74005,119.74882
1.374e-008,-109.59307,133.92795
1.375e-008,-109.44033,148.07329
1.376e-008,-109.28212,162.19899
1.377e-008,-109.119,176.32269
1.378e-008,-108.95188,-169.54359
1.379e-008,-108.78195,-155.38441
1.38e-008,-108.61039,-141.18884
1.381e-008,-108.43862,-126.94614
1.382e-008,-108.26807,-112.64761
1.383e-008,-108.10035,-98.286629
1.384e-008,-107.93696,-83.85685
1.385e-008,-107.77933,-69.355003
1.386e-008,-107.62887,-54.777149
1.387e-008,-107.48701,-40.121941
1.388e-008,-107.35486,-25.387836
1.389e-008,-107.23375,-10.574451
1.39e-008,-107.12434,4.3177776
1.391e-008,-107.02784,19.289127
1.392e-008,-106.9448,34.338356
1.393e-008,-106.87605,49.465069
1.394e-008,-106.82201,64.668343
1.395e-008,-106.78318,79.947502
1.396e-008,-106.75986,95.302185
1.397e-008,-106.75224,110.73256
1.398e-008,-106.76044,126.2382
1.399e-008,-106.78444,141.81941
1.4e-008,-106.82414,157.47769
1.401e-008,-106.87929,173.21339
1.402e-008,-106.94948,-170.97141
1.403e-008,-107.03423,-155.07504
1.404e-008,-107.13284,-139.09503
1.405e-008,-107.24443,-123.02824
1.406e-008,-107.368,-106.87305
1.407e-008,-107.50223,-90.624817
1.408e-008,-107.64568,-74.281326
1.409e-008,-107.79662,-57.839615
1.41e-008,-107.95299,-41.296291
1.411e-008,-108.11253,-24.649982
1.412e-008,-108.27271,-7.899406
1.413e-008,-108.43063,8.9543571
1.414e-008,-108.58321,25.909733
1.415e-008,-108.72725,42.961788
1.416e-008,-108.85928,60.103706
1.417e-008,-108.97594,77.324501
1.418e-008,-109.07389,94.611435
1.419e-008,-109.15011,111.94809
1.42e-008,-109.20185,129.31532
1.421e-008,-109.22698,146.6918
1.422e-008,-109.224,164.05418
1.423e-008,-109.192,-178.62
1.424e-008,-109.1309,-161.35294
1.425e-008,-109.0414,-144.16563
1.426e-008,-108.92465,-127.07615
1.427e-008,-108.78262,-110.09842
1.428e-008,-108.61739,-93.243324
1.429e-008,-108.43156,-76.518028
1.43e-008,-108.22784,-59.92561
1.431e-008,-108.00902,-43.465778
1.432e-008,-107.77782,-27.135305
1.433e-008,-107.53706,-10.928986
1.434e-008,-107.28915,5.160356
1.435e-008,-107.0367,21.140779
1.436e-008,-106.78185,37.021992
1.437e-008,-106.52678,52.813
1.438e-008,-106.27348,68.523247
1.439e-008,-106.0237,84.161697
1.44e-008,-105.77917,99.737389
1.441e-008,-105.54139,115.25787
1.442e-008,-105.31176,130.73007
1.443e-008,-105.09166,146.16107
1.444e-008,-104.88218,161.55598
1.445e-008,-104.68448,176.91948
1.446e-008,-104.49952,-167.74435
1.447e-008,-104.3282,-152.4326
1.448e-008,-104.17141,-137.14256
1.449e-008,-104.02985,-121.87289
1.45e-008,-103.90416,-106.62247
1.451e-008,-103.79505,-91.391022
1.452e-008,-103.70294,-76.178848
1.453e-008,-103.62834,-60.986992
1.454e-008,-103.57162,-45.816639
1.455e-008,-103.53311,-30.670046
1.456e-008,-103.51302,-15.549705
1.457e-008,-103.51151,-0.45857182
1.458e-008,-103.52859,14.599618
1.459e-008,-103.56427,29.620918
1.46e-008,-103.61832,44.600777
1.461e-008,-103.69046,59.53389
1.462e-008,-103.78017,74.414703
1.463e-008,-103.8868,89.237755
1.464e-008,-104.00944,103.99657
1.465e-008,-104.147,118.68513
1.466e-008,-104.29796,133.29663
1.467e-008,-104.46064,147.82576
1.468e-008,-104.63284,162.26649
1.469e-008,-104.81208,176.61452
1.47e-008,-104.99539,-169.13228
1.471e-008,-105.17935,-154.97514
1.472e-008,-105.36024,-140.91098
1.473e-008,-105.53385,-126.93405
1.474e-008,-105.69578,-113.03378
1.475e-008,-105.84161,-99.194267
1.476e-008,-105.96679,-85.394287
1.477e-008,-106.06729,-71.608322
1.478e-008,-106.13947,-57.805779
1.479e-008,-106.18034,-43.952141
1.48e-008,-106.18797,-30.012346
1.481e-008,-106.16125,-15.950828
1.482e-008,-106.09998,-1.7345586
1.483e-008,-106.00495,12.665544
1.484e-008,-105.87758,27.272173
1.485e-008,-105.71981,42.101398
1.486e-008,-105.53377,57.163349
1.487e-008,-105.32202,72.459961
1.488e-008,-105.08698,87.985916
1.489e-008,-104.83096,103.73205
1.49e-008,-104.55638,119.68272
1.491e-008,-104.26553,135.81895
1.492e-008,-103.96056,152.11938
1.493e-008,-103.64379,168.56006
1.494e-008,-103.31741,-174.88261
1.495e-008,-102.98367,-158.23283
1.496e-008,-102.64495,-141.51408
1.497e-008,-102.30356,-124.74811
1.498e-008,-101.96201,-107.95535
1.499e-008,-101.62269,-91.153893
1.5e-008,-101.28803,-74.36013
1.501e-008,-100.96046,-57.588181
1.502e-008,-100.64229,-40.849934
1.503e-008,-100.33581,-24.156008
1.504e-008,-100.04315,-7.5147929
1.505e-008,-99.766403,9.0660086
1.506e-008,-99.507584,25.580442
1.507e-008,-99.268532,42.022835
1.508e-008,-99.051071,58.388489
1.509e-008,-98.856918,74.672844
1.51e-008,-98.687782,90.871368
1.511e-008,-98.545258,106.97949
1.512e-008,-98.430984,122.99209
1.513e-008,-98.346565,138.90355
1.514e-008,-98.293633,154.70702
1.515e-008,-98.273857,170.39462
1.516e-008,-98.28894,-174.04289
1.517e-008,-98.340706,-158.61713
1.518e-008,-98.431007,-143.34204
1.519e-008,-98.561775,-128.2347
1.52e-008,-98.734993,-113.31596
1.521e-008,-98.952728,-98.611694
1.522e-008,-99.216972,-84.153671
1.523e-008,-99.529518,-69.981392
1.524e-008,-99.8918,-56.14328
1.525e-008,-100.3045,-42.699722
1.526e-008,-100.767,-29.724802
1.527e-008,-101.2763,-17.308556
1.528e-008,-101.82581,-5.556776
1.529e-008,-102.40329,5.4115238
1.53e-008,-102.98832,15.47585
1.531e-008,-103.5499,24.539032
1.532e-008,-104.04601,32.570786
1.533e-008,-104.42759,39.661427
1.534e-008,-104.64977,46.062634
1.535e-008,-104.68727,52.167221
1.536e-008,-104.54633,58.414059
1.537e-008,-104.26238,65.157898
1.538e-008,-103.88706,72.591988
1.539e-008,-103.47263,80.743134
1.54e-008,-103.06282,89.517761
1.541e-008,-102.68947,98.750504
1.542e-008,-102.37359,108.2405
1.543e-008,-102.12665,117.7656
1.544e-008,-101.95152,127.08552
1.545e-008,-101.841,135.93967
1.546e-008,-101.77444,144.05081
1.547e-008,-101.71184,151.14944
1.548e-008,-101.58781,157.0408
1.549e-008,-101.31283,161.73479
1.55e-008,-100.7933,165.58644
1.551e-008,-99.972054,169.3047
1.552e-008,-98.861198,173.71086
1.553e-008,-97.53344,179.40674
1.554e-008,-96.081726,-173.37479
1.555e-008,-94.585098,-164.68974
1.556e-008,-93.096931,-154.73347
1.557e-008,-91.648102,-143.73187
1.558e-008,-90.254135,-131.89063
1.559e-008,-88.921249,-119.37962
1.56e-008,-87.650497,-106.33327
1.561e-008,-86.440216,-92.856094
1.562e-008,-85.287491,-79.029213
1.563e-008,-84.188889,-64.915573
1.564e-008,-83.140877,-50.564629
1.565e-008,-82.140045,-36.01532
1.566e-008,-81.183212,-21.298725
1.567e-008,-80.267464,-6.4398532
1.568e-008,-79.390114,8.5409327
1.569e-008,-78.548752,23.626993
1.57e-008,-77.741203,38.804569
1.571e-008,-76.965492,54.062164
1.572e-008,-76.219833,69.390129
1.573e-008,-75.502632,84.780357
1.574e-008,-74.812416,100.22586
1.575e-008,-74.147865,115.72074
1.576e-008,-73.507782,131.25981
1.577e-008,-72.891068,146.83871
1.578e-008,-72.296722,162.45354
1.579e-008,-71.723824,178.10092
1.58e-008,-71.171524,-166.22211
1.581e-008,-70.639076,-150.51816
1.582e-008,-70.125748,-134.78958
1.583e-008,-69.63089,-119.0384
1.584e-008,-69.1539,-103.26647
1.585e-008,-68.694221,-87.475441
1.586e-008,-68.251328,-71.666786
1.587e-008,-67.824738,-55.841854
1.588e-008,-67.414009,-40.001835
1.589e-008,-67.018723,-24.147821
1.59e-008,-66.638496,-8.2808142
1.591e-008,-66.272964,7.5982876
1.592e-008,-65.921791,23.488657
1.593e-008,-65.584663,39.389542
1.594e-008,-65.261284,55.300243
1.595e-008,-64.951385,71.220123
1.596e-008,-64.654709,87.148605
1.597e-008,-64.371017,103.08514
1.598e-008,-64.100082,119.02921
1.599e-008,-63.841694,134.98036
1.6e-008,-63.595657,150.93816
1.601e-008,-63.36179,166.90219
1.602e-008,-63.139919,-177.12793
1.603e-008,-62.929886,-161.15254
1.604e-008,-62.731544,-145.17198
1.605e-008,-62.54475,-129.18658
1.606e-008,-62.369377,-113.19662
1.607e-008,-62.205307,-97.2024
1.608e-008,-62.052422,-81.204178
1.609e-008,-61.910625,-65.202209
1.61e-008,-61.779816,-49.196747
1.611e-008,-61.659912,-33.188019
1.612e-008,-61.550835,-17.176262
1.613e-008,-61.452503,-1.1616994
1.614e-008,-61.364861,14.855458
1.615e-008,-61.287846,30.87501
1.616e-008,-61.221405,46.896736
1.617e-008,-61.165493,62.920429
1.618e-008,-61.120068,78.945915
1.619e-008,-61.085098,94.972954
1.62e-008,-61.060558,111.00137
1.621e-008,-61.046425,127.03094
1.622e-008,-61.042686,143.06149
1.623e-008,-61.049328,159.09279
1.624e-008,-61.066353,175.1246
1.625e-008,-61.093758,-168.84326
1.626e-008,-61.131554,-152.81105
1.627e-008,-61.17976,-136.77898
1.628e-008,-61.238388,-120.74731
1.629e-008,-61.307476,-104.71632
1.63e-008,-61.387051,-88.686264
1.631e-008,-61.477154,-72.657448
1.632e-008,-61.577831,-56.630177
1.633e-008,-61.68914,-40.604797
1.634e-008,-61.811138,-24.581652
1.635e-008,-61.943897,-8.5611372
1.636e-008,-62.08749,7.4563494
1.637e-008,-62.242001,23.470343
1.638e-008,-62.407524,39.480358
1.639e-008,-62.58416,55.48587
1.64e-008,-62.772018,71.486282
1.641e-008,-62.971222,87.480972
1.642e-008,-63.181896,103.46925
1.643e-008,-63.40419,119.45031
1.644e-008,-63.638252,135.42334
1.645e-008,-63.884247,151.38739
1.646e-008,-64.142357,167.34142
1.647e-008,-64.412773,-176.71574
1.648e-008,-64.695709,-160.78534
1.649e-008,-64.991386,-144.86885
1.65e-008,-65.300034,-128.96785
1.651e-008,-65.621933,-113.08414
1.652e-008,-65.957352,-97.219749
1.653e-008,-66.306595,-81.376938
1.654e-008,-66.669983,-65.558289
1.655e-008,-67.047859,-49.766697
1.656e-008,-67.440613,-34.005463
1.657e-008,-67.848625,-18.278351
1.658e-008,-68.272331,-2.5896349
1.659e-008,-68.712173,13.055777
1.66e-008,-69.168648,28.652248
1.661e-008,-69.642242,44.19331
1.662e-008,-70.133484,59.671452
1.663e-008,-70.642914,75.078018
1.664e-008,-71.171082,90.402946
1.665e-008,-71.718498,105.63448
1.666e-008,-72.285675,120.75892
1.667e-008,-72.873039,135.76024
1.668e-008,-73.480873,150.61964
1.669e-008,-74.109283,165.31509
1.67e-008,-74.758072,179.82083
1.671e-008,-75.426559,-165.89326
1.672e-008,-76.113411,-151.86198
1.673e-008,-76.816292,-138.12523
1.674e-008,-77.531548,-124.72774
1.675e-008,-78.253601,-111.71804
1.676e-008,-78.974457,-99.146118
1.677e-008,-79.682991,-87.058517
1.678e-008,-80.364487,-75.490807
1.679e-008,-81.000618,-64.456123
1.68e-008,-81.570244,-53.931808
1.681e-008,-82.051514,-43.846729
1.682e-008,-82.425293,-34.075798
1.683e-008,-82.679138,-24.447874
1.684e-008,-82.810265,-14.768696
1.685e-008,-82.826302,-4.8523622
1.686e-008,-82.743202,5.4500618
1.687e-008,-82.581581,16.235361
1.688e-008,-82.362839,27.547735
1.689e-008,-82.106438,39.388889
1.69e-008,-81.828468,51.731674
1.691e-008,-81.541344,64.532715
1.692e-008,-81.254128,77.741875
1.693e-008,-80.973114,91.308395
1.694e-008,-80.702446,105.18423
1.695e-008,-80.444717,119.32581
1.696e-008,-80.201385,133.6945
1.697e-008,-79.973083,148.25656
1.698e-008,-79.759941,162.98277
1.699e-008,-79.561714,177.84785
1.7e-008,-79.377945,-167.16994
1.701e-008,-79.208015,-152.08932
1.702e-008,-79.051247,-136.92656
1.703e-008,-78.906929,-121.69564
1.704e-008,-78.774345,-106.40876
1.705e-008,-78.652786,-91.076462
1.706e-008,-78.54158,-75.707932
1.707e-008,-78.440086,-60.311207
1.708e-008,-78.34771,-44.893265
1.709e-008,-78.263893,-29.460188
1.71e-008,-78.188133,-14.01726
1.711e-008,-78.119957,1.4309099
1.712e-008,-78.058937,16.880329
1.713e-008,-78.0047,32.327595
1.714e-008,-77.956886,47.769775
1.715e-008,-77.915207,63.204391
1.716e-008,-77.879387,78.629364
1.717e-008,-77.849197,94.042969
1.718e-008,-77.824432,109.4438
1.719e-008,-77.804932,124.83075
1.72e-008,-77.790543,140.20297
1.721e-008,-77.781181,155.5598
1.722e-008,-77.776749,170.90083
1.723e-008,-77.777199,-173.7742
1.724e-008,-77.782501,-158.46544
1.725e-008,-77.792664,-143.17285
1.726e-008,-77.807693,-127.89637
1.727e-008,-77.827629,-112.63583
1.728e-008,-77.852539,-97.391006
1.729e-008,-77.882507,-82.161652
1.73e-008,-77.917618,-66.947517
1.731e-008,-77.957993,-51.748306
1.732e-008,-78.003754,-36.563869
1.733e-008,-78.055046,-21.393942
1.734e-008,-78.112015,-6.2384439
1.735e-008,-78.174828,8.9027243
1.736e-008,-78.24366,24.029526
1.737e-008,-78.318672,39.141846
1.738e-008,-78.400047,54.239475
1.739e-008,-78.487984,69.322083
1.74e-008,-78.582657,84.389214
1.741e-008,-78.684258,99.440292
1.742e-008,-78.792969,114.47454
1.743e-008,-78.908966,129.49112
1.744e-008,-79.032425,144.48897
1.745e-008,-79.163521,159.46689
1.746e-008,-79.302391,174.42349
1.747e-008,-79.449203,-170.64278
1.748e-008,-79.60408,-155.73364
1.749e-008,-79.767128,-140.85104
1.75e-008,-79.938446,-125.99717
1.751e-008,-80.118095,-111.17429
1.752e-008,-80.306129,-96.384979
1.753e-008,-80.502548,-81.632034
1.754e-008,-80.707329,-66.918434
1.755e-008,-80.920403,-52.247345
1.756e-008,-81.141655,-37.622231
1.757e-008,-81.370911,-23.046684
1.758e-008,-81.607933,-8.5245686
1.759e-008,-81.852425,5.9401698
1.76e-008,-82.103989,20.343338
1.761e-008,-82.36216,34.680733
1.762e-008,-82.62635,48.948025
1.763e-008,-82.895889,63.140953
1.764e-008,-83.169952,77.255318
1.765e-008,-83.447601,91.287201
1.766e-008,-83.727776,105.23291
1.767e-008,-84.009239,119.08952
1.768e-008,-84.290627,132.85457
1.769e-008,-84.57045,146.5267
1.77e-008,-84.847054,160.10553
1.771e-008,-85.118721,173.59219
1.772e-008,-85.383606,-173.01057
1.773e-008,-85.639877,-159.69827
1.774e-008,-85.885674,-146.46437
1.775e-008,-86.119225,-133.30035
1.776e-008,-86.338898,-120.19562
1.777e-008,-86.543274,-107.1377
1.778e-008,-86.731194,-94.112427
1.779e-008,-86.901833,-81.10437
1.78e-008,-87.054749,-68.097229
1.781e-008,-87.189873,-55.074451
1.782e-008,-87.307526,-42.019695
1.783e-008,-87.40844,-28.917393
1.784e-008,-87.493637,-15.753301
1.785e-008,-87.564453,-2.514734
1.786e-008,-87.622414,10.809044
1.787e-008,-87.669197,24.226809
1.788e-008,-87.706573,37.745163
1.789e-008,-87.736328,51.368744
1.79e-008,-87.760193,65.100525
1.791e-008,-87.779854,78.941597
1.792e-008,-87.796875,92.891731
1.793e-008,-87.812714,106.94948
1.794e-008,-87.828651,121.1125
1.795e-008,-87.845879,135.37761
1.796e-008,-87.865395,149.7412
1.797e-008,-87.888092,164.19908
1.798e-008,-87.914719,178.74707
1.799e-008,-87.945915,-166.6194
1.8e-008,-87.982208,-151.90482
1.801e-008,-88.02401,-137.11369
1.802e-008,-88.071663,-122.25039
1.803e-008,-88.125435,-107.31921
1.804e-008,-88.185509,-92.32428
1.805e-008,-88.252022,-77.269661
1.806e-008,-88.32505,-62.159004
1.807e-008,-88.404617,-46.996014
1.808e-008,-88.490753,-31.78404
1.809e-008,-88.583389,-16.526327
1.81e-008,-88.68248,-1.2258785
1.811e-008,-88.787956,14.114453
1.812e-008,-88.899689,29.492054
1.813e-008,-89.017578,44.904354
1.814e-008,-89.141495,60.349197
1.815e-008,-89.271309,75.824303
1.816e-008,-89.406868,91.327751
1.817e-008,-89.548035,106.85783
1.818e-008,-89.694649,122.41281
1.819e-008,-89.846573,137.99121
1.82e-008,-90.003654,153.59175
1.821e-008,-90.165741,169.21321
1.822e-008,-90.332695,-175.14532
1.823e-008,-90.504372,-159.48479
1.824e-008,-90.680649,-143.80583
1.825e-008,-90.861382,-128.10901
1.826e-008,-91.046455,-112.39462
1.827e-008,-91.235748,-96.662918
1.828e-008,-91.429146,-80.913895
1.829e-008,-91.626534,-65.147339
1.83e-008,-91.827827,-49.362942
1.831e-008,-92.032913,-33.560196
1.832e-008,-92.241699,-17.738354
1.833e-008,-92.454102,-1.8964794
1.834e-008,-92.670013,13.966475
1.835e-008,-92.889351,29.852018
1.836e-008,-93.112007,45.76165
1.837e-008,-93.337875,61.697105
1.838e-008,-93.566864,77.660507
1.839e-008,-93.798836,93.654083
1.84e-008,-94.033638,109.68033
1.841e-008,-94.271126,125.74205
1.842e-008,-94.511108,141.84236
1.843e-008,-94.753357,157.98444
1.844e-008,-94.997604,174.17194
1.845e-008,-95.243553,-169.59134
1.846e-008,-95.490845,-153.30133
1.847e-008,-95.739052,-136.95386
1.848e-008,-95.987656,-120.54437
1.849e-008,-96.236115,-104.06815
1.85e-008,-96.483681,-87.520607
1.851e-008,-96.729614,-70.896851
1.852e-008,-96.972984,-54.192162
1.853e-008,-97.212769,-37.401955
1.854e-008,-97.447792,-20.522053
1.855e-008,-97.676743,-3.5487924
1.856e-008,-97.898148,13.521046
1.857e-008,-98.110397,30.689487
1.858e-008,-98.311806,47.957535
1.859e-008,-98.500526,65.325081
1.86e-008,-98.674637,82.789948
1.861e-008,-98.832268,100.3481
1.862e-008,-98.971458,117.99405
1.863e-008,-99.090454,135.71938
1.864e-008,-99.187546,153.51453
1.865e-008,-99.261383,171.36737
1.866e-008,-99.310776,-170.73576
1.867e-008,-99.335007,-152.80933
1.868e-008,-99.333717,-134.86954
1.869e-008,-99.307022,-116.93217
1.87e-008,-99.255302,-99.01236
1.871e-008,-99.179565,-81.125053
1.872e-008,-99.080971,-63.283833
1.873e-008,-98.961143,-45.499863
1.874e-008,-98.821762,-27.782904
1.875e-008,-98.664795,-10.140515
1.876e-008,-98.492226,7.42205
1.877e-008,-98.306084,24.900871
1.878e-008,-98.108337,42.294941
1.879e-008,-97.900948,59.603619
1.88e-008,-97.685684,76.828651
1.881e-008,-97.464302,93.971992
1.882e-008,-97.238297,111.03714
1.883e-008,-97.009117,128.02789
1.884e-008,-96.77803,144.94843
1.885e-008,-96.546158,161.80312
1.886e-008,-96.314552,178.59689
1.887e-008,-96.084091,-164.6657
1.888e-008,-95.855568,-147.9801
1.889e-008,-95.629692,-131.34206
1.89e-008,-95.407036,-114.74704
1.891e-008,-95.188179,-98.191284
1.892e-008,-94.973541,-81.67115
1.893e-008,-94.763557,-65.18306
1.894e-008,-94.558563,-48.723778
1.895e-008,-94.358871,-32.290573
1.896e-008,-94.164734,-15.880856
1.897e-008,-93.97641,0.50766051
1.898e-008,-93.794075,16.877245
1.899e-008,-93.617928,33.229618
1.9e-008,-93.448105,49.566326
1.901e-008,-93.284729,65.888687
1.902e-008,-93.127937,82.19799
1.903e-008,-92.977844,98.494949
1.904e-008,-92.834518,114.78051
1.905e-008,-92.698044,131.05518
1.906e-008,-92.568512,147.31941
1.907e-008,-92.445969,163.57327
1.908e-008,-92.33049,179.81717
1.909e-008,-92.222107,-163.94919
1.91e-008,-92.120911,-147.72572
1.911e-008,-92.026924,-131.51294
1.912e-008,-91.940193,-115.31105
1.913e-008,-91.860786,-99.120644
1.914e-008,-91.788727,-82.9422
1.915e-008,-91.724091,-66.776428
1.916e-008,-91.666893,-50.624077
1.917e-008,-91.617188,-34.486004
1.918e-008,-91.575043,-18.363136
1.919e-008,-91.540489,-2.256474
1.92e-008,-91.51358,13.833076
1.921e-008,-91.494362,29.904198
1.922e-008,-91.48291,45.955814
1.923e-008,-91.479256,61.986618
1.924e-008,-91.483459,77.995392
1.925e-008,-91.495567,93.980606
1.926e-008,-91.515656,109.9409
1.927e-008,-91.54377,125.87472
1.928e-008,-91.579964,141.78059
1.929e-008,-91.62429,157.65666
1.93e-008,-91.676811,173.50137
1.931e-008,-91.737579,-170.6871
1.932e-008,-91.806641,-154.91071
1.933e-008,-91.884033,-139.17131
1.934e-008,-91.969803,-123.47108
1.935e-008,-92.063972,-107.81207
1.936e-008,-92.166603,-92.196617
1.937e-008,-92.277679,-76.627052
1.938e-008,-92.397224,-61.105831
1.939e-008,-92.525238,-45.635643
1.94e-008,-92.661697,-30.219181
1.941e-008,-92.806557,-14.859316
1.942e-008,-92.959785,0.44081903
1.943e-008,-93.121277,15.678062
1.944e-008,-93.290947,30.848967
1.945e-008,-93.468651,45.950001
1.946e-008,-93.654213,60.977402
1.947e-008,-93.847427,75.927223
1.948e-008,-94.048019,90.795197
1.949e-008,-94.255676,105.57715
1.95e-008,-94.469994,120.26824
1.951e-008,-94.690536,134.86406
1.952e-008,-94.916756,149.35936
1.953e-008,-95.148003,163.74937
1.954e-008,-95.383522,178.02881
1.955e-008,-95.622459,-167.8074
1.956e-008,-95.8638,-153.76433
1.957e-008,-96.106377,-139.84686
1.958e-008,-96.348892,-126.05965
1.959e-008,-96.589806,-112.40673
1.96e-008,-96.827515,-98.891495
1.961e-008,-97.060104,-85.516411
1.962e-008,-97.285561,-72.282539
1.963e-008,-97.501701,-59.189602
1.964e-008,-97.706184,-46.235542
1.965e-008,-97.896622,-33.415722
1.966e-008,-98.070518,-20.723406
1.967e-008,-98.225494,-8.1492939
1.968e-008,-98.3592,4.318934
1.969e-008,-98.469604,16.696041
1.97e-008,-98.554878,28.99917
1.971e-008,-98.613647,41.247822
1.972e-008,-98.644974,53.462574
1.973e-008,-98.648422,65.665039
1.974e-008,-98.624077,77.877022
1.975e-008,-98.572548,90.119568
1.976e-008,-98.494881,102.41222
1.977e-008,-98.392563,114.77306
1.978e-008,-98.267372,127.21729
1.979e-008,-98.121315,139.7581
1.98e-008,-97.956551,152.4059
1.981e-008,-97.775299,165.1684
1.982e-008,-97.579765,178.05122
1.983e-008,-97.37207,-168.94237
1.984e-008,-97.154251,-155.81081
1.985e-008,-96.928246,-142.55406
1.986e-008,-96.695778,-129.17319
1.987e-008,-96.458458,-115.67066
1.988e-008,-96.217728,-102.04945
1.989e-008,-95.974899,-88.31295
1.99e-008,-95.73114,-74.465111
1.991e-008,-95.487503,-60.510265
1.992e-008,-95.244888,-46.452576
1.993e-008,-95.00415,-32.296597
1.994e-008,-94.766014,-18.046926
1.995e-008,-94.531136,-3.7077897
1.996e-008,-94.300125,10.716276
1.997e-008,-94.073509,25.220926
1.998e-008,-93.851753,39.801849
1.999e-008,-93.635323,54.455017
2e-008,-93.424599,69.176277
END

