!CSV A.01.01
!Keysight Technologies,N5227B,US58420762,A.13.80.08
!Date: Monday, November 20, 2023 16:10:38
!Source: Standard

BEGIN CH1_DATA
Time(s),S21(DB),S21(DEG)
1e-008,-120.38865,-79.532715
1.001e-008,-119.51067,-66.512787
1.002e-008,-118.73495,-52.952534
1.003e-008,-118.05238,-38.98391
1.004e-008,-117.45526,-24.698719
1.005e-008,-116.93649,-10.161008
1.006e-008,-116.4906,4.5776887
1.007e-008,-116.11282,19.483067
1.008e-008,-115.79955,34.525352
1.009e-008,-115.54728,49.686382
1.01e-008,-115.35372,64.946983
1.011e-008,-115.21775,80.299408
1.012e-008,-115.1377,95.727837
1.013e-008,-115.11313,111.23179
1.014e-008,-115.1443,126.80121
1.015e-008,-115.23106,142.43829
1.016e-008,-115.375,158.1393
1.017e-008,-115.57732,173.90607
1.018e-008,-115.84076,-170.25775
1.019e-008,-116.16814,-154.3463
1.02e-008,-116.56364,-138.35149
1.021e-008,-117.03221,-122.25713
1.022e-008,-117.58069,-106.04636
1.023e-008,-118.21677,-89.691055
1.024e-008,-118.95233,-73.149094
1.025e-008,-119.80014,-56.365356
1.026e-008,-120.77982,-39.247723
1.027e-008,-121.91405,-21.65365
1.028e-008,-123.23637,-3.3531644
1.029e-008,-124.78708,16.050484
1.03e-008,-126.61516,37.302475
1.031e-008,-128.74539,61.798916
1.032e-008,-131.05292,92.168571
1.033e-008,-132.8436,131.32446
1.034e-008,-132.84264,175.30502
1.035e-008,-131.21532,-147.00215
1.036e-008,-129.2327,-117.92531
1.037e-008,-127.47473,-94.31752
1.038e-008,-126.02354,-73.791496
1.039e-008,-124.85016,-55.063412
1.04e-008,-123.90653,-37.486431
1.041e-008,-123.1558,-20.699251
1.042e-008,-122.56804,-4.5135636
1.043e-008,-122.12279,11.182931
1.044e-008,-121.80248,26.441088
1.045e-008,-121.59711,41.288685
1.046e-008,-121.49543,55.705338
1.047e-008,-121.49147,69.665184
1.048e-008,-121.5765,83.110191
1.049e-008,-121.74267,95.963882
1.05e-008,-121.97772,108.11507
1.051e-008,-122.26537,119.44886
1.052e-008,-122.57875,129.82767
1.053e-008,-122.88088,139.1485
1.054e-008,-123.11786,147.36258
1.055e-008,-123.22986,154.5936
1.056e-008,-123.15728,161.1449
1.057e-008,-122.8702,167.51953
1.058e-008,-122.3741,174.25644
1.059e-008,-121.71322,-178.21764
1.06e-008,-120.94498,-169.67647
1.061e-008,-120.12767,-160.08121
1.062e-008,-119.30259,-149.51329
1.063e-008,-118.50101,-138.10458
1.064e-008,-117.74024,-125.98908
1.065e-008,-117.03072,-113.29462
1.066e-008,-116.37703,-100.1277
1.067e-008,-115.78184,-86.574638
1.068e-008,-115.24436,-72.707413
1.069e-008,-114.76488,-58.583012
1.07e-008,-114.34066,-44.24416
1.071e-008,-113.97168,-29.730482
1.072e-008,-113.65591,-15.06881
1.073e-008,-113.39261,-0.28471521
1.074e-008,-113.18041,14.603571
1.075e-008,-113.01881,29.577978
1.076e-008,-112.90723,44.624981
1.077e-008,-112.84641,59.734596
1.078e-008,-112.83537,74.894409
1.079e-008,-112.87551,90.096893
1.08e-008,-112.96757,105.33422
1.081e-008,-113.11324,120.6004
1.082e-008,-113.31406,135.88733
1.083e-008,-113.57314,151.19099
1.084e-008,-113.89342,166.50423
1.085e-008,-114.27933,-178.17641
1.086e-008,-114.736,-162.86003
1.087e-008,-115.2704,-147.55049
1.088e-008,-115.89136,-132.25775
1.089e-008,-116.61001,-116.98594
1.09e-008,-117.44154,-101.74902
1.091e-008,-118.40717,-86.559593
1.092e-008,-119.53529,-71.444809
1.093e-008,-120.87019,-56.422962
1.094e-008,-122.47466,-41.568001
1.095e-008,-124.46418,-26.983408
1.096e-008,-127.04359,-12.915036
1.097e-008,-130.67125,-0.11698839
1.098e-008,-136.75662,7.6883965
1.099e-008,-148.66779,-60.756439
1.1e-008,-136.46919,-113.40423
1.101e-008,-130.99522,-104.99657
1.102e-008,-127.79485,-92.290047
1.103e-008,-125.59747,-78.530273
1.104e-008,-123.97421,-64.388275
1.105e-008,-122.72977,-50.10704
1.106e-008,-121.75785,-35.805843
1.107e-008,-120.99635,-21.551701
1.108e-008,-120.40486,-7.3958116
1.109e-008,-119.95579,6.6154308
1.11e-008,-119.62962,20.442209
1.111e-008,-119.4119,34.041832
1.112e-008,-119.29049,47.36021
1.113e-008,-119.25559,60.336826
1.114e-008,-119.29633,72.906441
1.115e-008,-119.40202,84.999817
1.116e-008,-119.55817,96.529762
1.117e-008,-119.74664,107.41415
1.118e-008,-119.94387,117.58484
1.119e-008,-120.11864,127.00681
1.12e-008,-120.23506,135.71228
1.121e-008,-120.25644,143.82457
1.122e-008,-120.15276,151.5687
1.123e-008,-119.90919,159.24872
1.124e-008,-119.53081,167.17413
1.125e-008,-119.04181,175.60547
1.126e-008,-118.47433,-175.29739
1.127e-008,-117.86315,-165.4628
1.128e-008,-117.23872,-154.91377
1.129e-008,-116.62423,-143.70822
1.13e-008,-116.03753,-131.92345
1.131e-008,-115.489,-119.64306
1.132e-008,-114.98621,-106.94775
1.133e-008,-114.53387,-93.905731
1.134e-008,-114.13457,-80.578445
1.135e-008,-113.78961,-67.016357
1.136e-008,-113.50047,-53.270191
1.137e-008,-113.26695,-39.374489
1.138e-008,-113.0902,-25.366367
1.139e-008,-112.97012,-11.275106
1.14e-008,-112.90799,2.867027
1.141e-008,-112.90465,17.035868
1.142e-008,-112.9616,31.199041
1.143e-008,-113.08051,45.329117
1.144e-008,-113.26392,59.392418
1.145e-008,-113.51453,73.349884
1.146e-008,-113.83588,87.156128
1.147e-008,-114.23214,100.75503
1.148e-008,-114.70745,114.0758
1.149e-008,-115.26675,127.0217
1.15e-008,-115.91406,139.46768
1.151e-008,-116.65144,151.24539
1.152e-008,-117.47581,162.11847
1.153e-008,-118.37177,171.78682
1.154e-008,-119.3013,179.87097
1.155e-008,-120.18481,-173.99753
1.156e-008,-120.88926,-169.97354
1.157e-008,-121.24835,-167.60976
1.158e-008,-121.14961,-165.71162
1.159e-008,-120.62283,-162.80644
1.16e-008,-119.81308,-157.95798
1.161e-008,-118.88222,-150.99033
1.162e-008,-117.94398,-142.17392
1.163e-008,-117.06043,-131.89944
1.164e-008,-116.26077,-120.51596
1.165e-008,-115.5555,-108.30152
1.166e-008,-114.94669,-95.459732
1.167e-008,-114.43256,-82.14241
1.168e-008,-114.00998,-68.462463
1.169e-008,-113.67621,-54.502815
1.17e-008,-113.42907,-40.330067
1.171e-008,-113.26737,-25.991858
1.172e-008,-113.19086,-11.532264
1.173e-008,-113.20086,3.0135903
1.174e-008,-113.30027,17.613462
1.175e-008,-113.49323,32.234241
1.176e-008,-113.78683,46.840702
1.177e-008,-114.19033,61.394592
1.178e-008,-114.71712,75.844269
1.179e-008,-115.38536,90.118607
1.18e-008,-116.22206,104.11639
1.181e-008,-117.26413,117.66959
1.182e-008,-118.56741,130.48532
1.183e-008,-120.21539,142.01048
1.184e-008,-122.33001,151.0356
1.185e-008,-125.03788,154.62828
1.186e-008,-127.99894,145.68707
1.187e-008,-128.62187,120.86002
1.188e-008,-125.79968,105.34029
1.189e-008,-122.64564,105.6155
1.19e-008,-120.0762,113.28908
1.191e-008,-118.02439,124.24709
1.192e-008,-116.35434,136.86281
1.193e-008,-114.96926,150.4131
1.194e-008,-113.80435,164.53537
1.195e-008,-112.81605,179.03581
1.196e-008,-111.97395,-166.205
1.197e-008,-111.25653,-151.26057
1.198e-008,-110.64822,-136.17867
1.199e-008,-110.13721,-120.99612
1.2e-008,-109.71498,-105.73452
1.201e-008,-109.37526,-90.41362
1.202e-008,-109.11359,-75.047424
1.203e-008,-108.92682,-59.647667
1.204e-008,-108.81308,-44.224682
1.205e-008,-108.77184,-28.78627
1.206e-008,-108.80324,-13.341208
1.207e-008,-108.90894,2.1025546
1.208e-008,-109.09155,17.536493
1.209e-008,-109.35507,32.951305
1.21e-008,-109.70532,48.335918
1.211e-008,-110.15005,63.676029
1.212e-008,-110.69958,78.952042
1.213e-008,-111.36845,94.13929
1.214e-008,-112.17611,109.20047
1.215e-008,-113.15055,124.075
1.216e-008,-114.33192,138.67036
1.217e-008,-115.78217,152.81604
1.218e-008,-117.60091,166.18294
1.219e-008,-119.96197,178.01524
1.22e-008,-123.19205,-173.76488
1.221e-008,-127.80254,-176.89893
1.222e-008,-131.25989,144.20531
1.223e-008,-126.90852,113.2151
1.224e-008,-122.67286,113.47627
1.225e-008,-119.73447,122.63083
1.226e-008,-117.59077,134.77736
1.227e-008,-115.95483,148.23395
1.228e-008,-114.67263,162.36414
1.229e-008,-113.65588,176.87506
1.23e-008,-112.85017,-168.38911
1.231e-008,-112.22015,-153.51695
1.232e-008,-111.74378,-138.56944
1.233e-008,-111.40572,-123.59066
1.234e-008,-111.19732,-108.61651
1.235e-008,-111.11362,-93.676704
1.236e-008,-111.1543,-78.808952
1.237e-008,-111.32224,-64.051025
1.238e-008,-111.62486,-49.45472
1.239e-008,-112.07393,-35.089581
1.24e-008,-112.68697,-21.056244
1.241e-008,-113.48991,-7.5165958
1.242e-008,-114.51946,5.268487
1.243e-008,-115.82507,16.831642
1.244e-008,-117.46936,26.280777
1.245e-008,-119.48937,31.799965
1.246e-008,-121.69214,29.845215
1.247e-008,-123.00306,17.194086
1.248e-008,-121.96698,2.3967683
1.249e-008,-119.55641,-2.3912036
1.25e-008,-117.15907,1.5036731
1.251e-008,-115.12704,10.089919
1.252e-008,-113.45152,21.156029
1.253e-008,-112.07171,33.621437
1.254e-008,-110.93397,46.936962
1.255e-008,-109.99957,60.797153
1.256e-008,-109.24124,75.021347
1.257e-008,-108.64072,89.497635
1.258e-008,-108.18652,104.15202
1.259e-008,-107.87276,118.93253
1.26e-008,-107.6984,133.80154
1.261e-008,-107.66762,148.73004
1.262e-008,-107.78981,163.69559
1.263e-008,-108.08224,178.67734
1.264e-008,-108.57176,-166.34462
1.265e-008,-109.30182,-151.39093
1.266e-008,-110.34315,-136.49304
1.267e-008,-111.82084,-121.69873
1.268e-008,-113.97925,-107.11395
1.269e-008,-117.40855,-93.071365
1.27e-008,-124.29583,-81.617172
1.271e-008,-132.8237,136.83562
1.272e-008,-118.97311,137.91956
1.273e-008,-113.53095,151.0873
1.274e-008,-110.01287,165.17084
1.275e-008,-107.38415,179.45604
1.276e-008,-105.27768,-166.23447
1.277e-008,-103.51962,-151.97577
1.278e-008,-102.01343,-137.81029
1.279e-008,-100.69955,-123.76953
1.28e-008,-99.538185,-109.87964
1.281e-008,-98.500961,-96.166924
1.282e-008,-97.566391,-82.655785
1.283e-008,-96.71698,-69.372223
1.284e-008,-95.93795,-56.341385
1.285e-008,-95.215645,-43.586849
1.286e-008,-94.53698,-31.129866
1.287e-008,-93.888809,-18.985367
1.288e-008,-93.257668,-7.1593776
1.289e-008,-92.629807,4.3548632
1.29e-008,-91.991592,15.58108
1.291e-008,-91.33007,26.562315
1.292e-008,-90.634209,37.361629
1.293e-008,-89.895737,48.058796
1.294e-008,-89.110153,58.744102
1.295e-008,-88.277046,69.509323
1.296e-008,-87.399834,80.438896
1.297e-008,-86.485008,91.601776
1.298e-008,-85.540962,103.04813
1.299e-008,-84.576828,114.80824
1.3e-008,-83.60157,126.89451
1.301e-008,-82.623299,139.30534
1.302e-008,-81.648949,152.02882
1.303e-008,-80.684158,165.04671
1.304e-008,-79.733345,178.33701
1.305e-008,-78.799812,-168.12358
1.306e-008,-77.885963,-154.35826
1.307e-008,-76.993439,-140.38922
1.308e-008,-76.123299,-126.23714
1.309e-008,-75.276131,-111.92093
1.31e-008,-74.452209,-97.457603
1.311e-008,-73.65152,-82.86248
1.312e-008,-72.873886,-68.149132
1.313e-008,-72.11898,-53.329639
1.314e-008,-71.386398,-38.4147
1.315e-008,-70.675674,-23.41374
1.316e-008,-69.986298,-8.3351536
1.317e-008,-69.317734,6.8136544
1.318e-008,-68.669464,22.026102
1.319e-008,-68.040939,37.296383
1.32e-008,-67.431641,52.619293
1.321e-008,-66.841057,67.990227
1.322e-008,-66.268692,83.405045
1.323e-008,-65.714066,98.860077
1.324e-008,-65.17672,114.35202
1.325e-008,-64.656219,129.8779
1.326e-008,-64.152138,145.43503
1.327e-008,-63.664074,161.02103
1.328e-008,-63.191658,176.63371
1.329e-008,-62.734524,-167.7289
1.33e-008,-62.292328,-152.06857
1.331e-008,-61.864746,-136.38696
1.332e-008,-61.451469,-120.68554
1.333e-008,-61.052208,-104.96564
1.334e-008,-60.666683,-89.228516
1.335e-008,-60.294636,-73.475281
1.336e-008,-59.935814,-57.706997
1.337e-008,-59.589989,-41.924606
1.338e-008,-59.256931,-26.128986
1.339e-008,-58.936436,-10.320952
1.34e-008,-58.628307,5.4987497
1.341e-008,-58.332352,21.32943
1.342e-008,-58.048397,37.170452
1.343e-008,-57.776272,53.021206
1.344e-008,-57.515827,68.881149
1.345e-008,-57.266903,84.749763
1.346e-008,-57.029373,100.62658
1.347e-008,-56.803093,116.51113
1.348e-008,-56.587952,132.40302
1.349e-008,-56.38382,148.30183
1.35e-008,-56.190601,164.20724
1.351e-008,-56.00819,-179.88113
1.352e-008,-55.836491,-163.96361
1.353e-008,-55.675419,-148.04047
1.354e-008,-55.524891,-132.11201
1.355e-008,-55.38483,-116.17853
1.356e-008,-55.255173,-100.24025
1.357e-008,-55.135849,-84.297401
1.358e-008,-55.026806,-68.350235
1.359e-008,-54.92799,-52.398956
1.36e-008,-54.839359,-36.443779
1.361e-008,-54.760868,-20.484882
1.362e-008,-54.692478,-4.5224652
1.363e-008,-54.634167,11.443299
1.364e-008,-54.585907,27.412249
1.365e-008,-54.547672,43.38422
1.366e-008,-54.519459,59.359058
1.367e-008,-54.501247,75.336609
1.368e-008,-54.493042,91.316742
1.369e-008,-54.494835,107.29932
1.37e-008,-54.506638,123.28419
1.371e-008,-54.528458,139.27126
1.372e-008,-54.560314,155.26038
1.373e-008,-54.602226,171.25143
1.374e-008,-54.654224,-172.75569
1.375e-008,-54.716339,-156.76109
1.376e-008,-54.788609,-140.76491
1.377e-008,-54.871075,-124.76722
1.378e-008,-54.963795,-108.76816
1.379e-008,-55.066814,-92.767822
1.38e-008,-55.180202,-76.766304
1.381e-008,-55.304028,-60.763725
1.382e-008,-55.438362,-44.760181
1.383e-008,-55.58329,-28.755779
1.384e-008,-55.738903,-12.75062
1.385e-008,-55.9053,3.255188
1.386e-008,-56.082581,19.261538
1.387e-008,-56.270866,35.268322
1.388e-008,-56.470272,51.275417
1.389e-008,-56.680943,67.282722
1.39e-008,-56.903004,83.290108
1.391e-008,-57.136627,99.297447
1.392e-008,-57.381962,115.3046
1.393e-008,-57.639194,131.31146
1.394e-008,-57.908508,147.31786
1.395e-008,-58.190113,163.32362
1.396e-008,-58.484219,179.32861
1.397e-008,-58.791065,-164.66737
1.398e-008,-59.110901,-148.66451
1.399e-008,-59.444,-132.66302
1.4e-008,-59.790646,-116.66314
1.401e-008,-60.151161,-100.66513
1.402e-008,-60.525871,-84.669243
1.403e-008,-60.91515,-68.675827
1.404e-008,-61.319386,-52.685204
1.405e-008,-61.739002,-36.697781
1.406e-008,-62.174461,-20.713987
1.407e-008,-62.626259,-4.734313
1.408e-008,-63.094944,11.240667
1.409e-008,-63.581104,27.210314
1.41e-008,-64.085388,43.173893
1.411e-008,-64.608513,59.130562
1.412e-008,-65.151245,75.079315
1.413e-008,-65.714447,91.019035
1.414e-008,-66.299065,106.94838
1.415e-008,-66.906158,122.86576
1.416e-008,-67.536896,138.76933
1.417e-008,-68.192589,154.65688
1.418e-008,-68.874702,170.52574
1.419e-008,-69.584908,-173.6273
1.42e-008,-70.325073,-157.80614
1.421e-008,-71.097351,-142.01555
1.422e-008,-71.904213,-126.26144
1.423e-008,-72.748497,-110.55122
1.424e-008,-73.633514,-94.894234
1.425e-008,-74.563148,-79.302391
1.426e-008,-75.541977,-63.791145
1.427e-008,-76.575462,-48.38084
1.428e-008,-77.670174,-33.098598
1.429e-008,-78.834061,-17.98147
1.43e-008,-80.076859,-3.0808876
1.431e-008,-81.410515,11.529608
1.432e-008,-82.849716,25.742416
1.433e-008,-84.412224,39.394547
1.434e-008,-86.118576,52.231556
1.435e-008,-87.988953,63.842155
1.436e-008,-90.031586,73.548889
1.437e-008,-92.205429,80.260925
1.438e-008,-94.321678,82.510948
1.439e-008,-95.901894,79.614273
1.44e-008,-96.374596,74.438263
1.441e-008,-95.802536,72.353767
1.442e-008,-94.787003,75.573509
1.443e-008,-93.760689,83.140953
1.444e-008,-92.881889,93.621056
1.445e-008,-92.181107,105.99966
1.446e-008,-91.648041,119.65755
1.447e-008,-91.263031,134.22464
1.448e-008,-91.006927,149.47778
1.449e-008,-90.863235,165.28204
1.45e-008,-90.818436,-178.44226
1.451e-008,-90.861252,-161.73853
1.452e-008,-90.982147,-144.62434
1.453e-008,-91.172539,-127.0976
1.454e-008,-91.424179,-109.14117
1.455e-008,-91.728355,-90.724091
1.456e-008,-92.075096,-71.806084
1.457e-008,-92.452225,-52.340073
1.458e-008,-92.844353,-32.278923
1.459e-008,-93.232162,-11.585594
1.46e-008,-93.592003,9.7526302
1.461e-008,-93.896904,31.705332
1.462e-008,-94.119255,54.182316
1.463e-008,-94.235237,77.026215
1.464e-008,-94.230118,100.02444
1.465e-008,-94.101837,122.94193
1.466e-008,-93.861259,145.56339
1.467e-008,-93.528603,167.72731
1.468e-008,-93.128288,-170.6599
1.469e-008,-92.684326,-149.62927
1.47e-008,-92.217285,-129.16617
1.471e-008,-91.743187,-109.22803
1.472e-008,-91.273659,-89.759262
1.473e-008,-90.816544,-70.70063
1.474e-008,-90.376862,-51.995842
1.475e-008,-89.95742,-33.593437
1.476e-008,-89.55957,-15.448154
1.477e-008,-89.18364,2.4785843
1.478e-008,-88.829239,20.220406
1.479e-008,-88.495605,37.80526
1.48e-008,-88.181618,55.257103
1.481e-008,-87.886086,72.595985
1.482e-008,-87.607727,89.838966
1.483e-008,-87.345222,107.00033
1.484e-008,-87.097282,124.09219
1.485e-008,-86.862679,141.12476
1.486e-008,-86.640244,158.10669
1.487e-008,-86.428856,175.04523
1.488e-008,-86.227501,-168.05368
1.489e-008,-86.03524,-151.18489
1.49e-008,-85.851234,-134.34416
1.491e-008,-85.674683,-117.52812
1.492e-008,-85.504913,-100.73392
1.493e-008,-85.341316,-83.959335
1.494e-008,-85.183388,-67.202621
1.495e-008,-85.03067,-50.462482
1.496e-008,-84.882805,-33.737797
1.497e-008,-84.739502,-17.027933
1.498e-008,-84.60054,-0.33234781
1.499e-008,-84.465752,16.34923
1.5e-008,-84.335045,33.016987
1.501e-008,-84.208359,49.670906
1.502e-008,-84.085724,66.31102
1.503e-008,-83.967171,82.937248
1.504e-008,-83.852806,99.549446
1.505e-008,-83.742744,116.14756
1.506e-008,-83.637146,132.73154
1.507e-008,-83.536194,149.3013
1.508e-008,-83.440079,165.85692
1.509e-008,-83.349014,-177.60159
1.51e-008,-83.263245,-161.07405
1.511e-008,-83.183006,-144.56029
1.512e-008,-83.108521,-128.05998
1.513e-008,-83.040047,-111.57284
1.514e-008,-82.977814,-95.098305
1.515e-008,-82.922058,-78.635994
1.516e-008,-82.873024,-62.185287
1.517e-008,-82.830917,-45.745537
1.518e-008,-82.795952,-29.316006
1.519e-008,-82.768341,-12.895908
1.52e-008,-82.74826,3.5156217
1.521e-008,-82.735886,19.919456
1.522e-008,-82.731392,36.316662
1.523e-008,-82.734924,52.708218
1.524e-008,-82.746597,69.095261
1.525e-008,-82.766548,85.478966
1.526e-008,-82.794853,101.86058
1.527e-008,-82.831612,118.24137
1.528e-008,-82.876892,134.62268
1.529e-008,-82.930725,151.00595
1.53e-008,-82.993164,167.39264
1.531e-008,-83.064194,-176.2157
1.532e-008,-83.143814,-159.81741
1.533e-008,-83.232002,-143.41086
1.534e-008,-83.328697,-126.99429
1.535e-008,-83.43383,-110.5659
1.536e-008,-83.54731,-94.123787
1.537e-008,-83.668999,-77.665993
1.538e-008,-83.798767,-61.19054
1.539e-008,-83.936417,-44.695324
1.54e-008,-84.081764,-28.178228
1.541e-008,-84.234566,-11.637037
1.542e-008,-84.394547,4.9304442
1.543e-008,-84.561401,21.526438
1.544e-008,-84.734795,38.153244
1.545e-008,-84.914337,54.813103
1.546e-008,-85.099609,71.508224
1.547e-008,-85.290146,88.24073
1.548e-008,-85.485428,105.01279
1.549e-008,-85.684906,121.82622
1.55e-008,-85.88797,138.68294
1.551e-008,-86.093994,155.58434
1.552e-008,-86.302254,172.5318
1.553e-008,-86.512054,-170.4738
1.554e-008,-86.72261,-153.43193
1.555e-008,-86.933136,-136.34235
1.556e-008,-87.142815,-119.20552
1.557e-008,-87.350822,-102.02243
1.558e-008,-87.556328,-84.794502
1.559e-008,-87.758537,-67.524033
1.56e-008,-87.956657,-50.213829
1.561e-008,-88.149971,-32.867268
1.562e-008,-88.337822,-15.488678
1.563e-008,-88.519608,1.9174471
1.564e-008,-88.69487,19.34584
1.565e-008,-88.863243,36.790634
1.566e-008,-89.024467,54.245926
1.567e-008,-89.178474,71.70546
1.568e-008,-89.325287,89.162865
1.569e-008,-89.46508,106.61189
1.57e-008,-89.59816,124.04636
1.571e-008,-89.724998,141.46056
1.572e-008,-89.846153,158.84918
1.573e-008,-89.962318,176.20715
1.574e-008,-90.074226,-166.46968
1.575e-008,-90.182739,-149.18486
1.576e-008,-90.288773,-131.94153
1.577e-008,-90.393227,-114.74192
1.578e-008,-90.497063,-97.587753
1.579e-008,-90.601265,-80.480064
1.58e-008,-90.706795,-63.41925
1.581e-008,-90.814621,-46.405312
1.582e-008,-90.925644,-29.437672
1.583e-008,-91.040794,-12.515465
1.584e-008,-91.160919,4.3626962
1.585e-008,-91.286858,21.198526
1.586e-008,-91.419388,37.99358
1.587e-008,-91.559273,54.750217
1.588e-008,-91.70723,71.470665
1.589e-008,-91.863914,88.157021
1.59e-008,-92.029945,104.81194
1.591e-008,-92.205971,121.43793
1.592e-008,-92.392517,138.03728
1.593e-008,-92.590134,154.61278
1.594e-008,-92.799286,171.16673
1.595e-008,-93.020485,-172.29822
1.596e-008,-93.254166,-155.77939
1.597e-008,-93.500755,-139.27464
1.598e-008,-93.760635,-122.78119
1.599e-008,-94.034187,-106.29681
1.6e-008,-94.321777,-89.819138
1.601e-008,-94.623695,-73.34539
1.602e-008,-94.940247,-56.873837
1.603e-008,-95.27179,-40.401756
1.604e-008,-95.618484,-23.926851
1.605e-008,-95.980667,-7.4472661
1.606e-008,-96.358383,9.0399847
1.607e-008,-96.751984,25.536388
1.608e-008,-97.161476,42.044445
1.609e-008,-97.586929,58.566605
1.61e-008,-98.028473,75.104286
1.611e-008,-98.486115,91.660187
1.612e-008,-98.959625,108.23557
1.613e-008,-99.448967,124.8328
1.614e-008,-99.953888,141.45357
1.615e-008,-100.47411,158.09912
1.616e-008,-101.00908,174.77007
1.617e-008,-101.55836,-168.53201
1.618e-008,-102.1212,-151.80757
1.619e-008,-102.69678,-135.0558
1.62e-008,-103.28414,-118.27891
1.621e-008,-103.88202,-101.47835
1.622e-008,-104.48904,-84.656502
1.623e-008,-105.1038,-67.817749
1.624e-008,-105.72459,-50.968208
1.625e-008,-106.34927,-34.114254
1.626e-008,-106.97569,-17.265154
1.627e-008,-107.60184,-0.43047038
1.628e-008,-108.22506,16.377186
1.629e-008,-108.84277,33.14399
1.63e-008,-109.45253,49.854538
1.631e-008,-110.05148,66.493446
1.632e-008,-110.63721,83.043434
1.633e-008,-111.20682,99.490227
1.634e-008,-111.75816,115.81747
1.635e-008,-112.28855,132.01511
1.636e-008,-112.79617,148.07094
1.637e-008,-113.27903,163.98259
1.638e-008,-113.73593,179.75131
1.639e-008,-114.16589,-164.62022
1.64e-008,-114.56852,-149.11789
1.641e-008,-114.9437,-133.72491
1.642e-008,-115.29289,-118.41816
1.643e-008,-115.61747,-103.1735
1.644e-008,-115.92009,-87.959015
1.645e-008,-116.20361,-72.747833
1.646e-008,-116.47192,-57.504696
1.647e-008,-116.72918,-42.200867
1.648e-008,-116.97905,-26.801212
1.649e-008,-117.22631,-11.283003
1.65e-008,-117.4754,4.3854527
1.651e-008,-117.72928,20.229719
1.652e-008,-117.99146,36.277687
1.653e-008,-118.26429,52.554581
1.654e-008,-118.54797,69.089386
1.655e-008,-118.84245,85.907593
1.656e-008,-119.1452,103.03889
1.657e-008,-119.45127,120.50645
1.658e-008,-119.7534,138.33167
1.659e-008,-120.04183,156.51923
1.66e-008,-120.30331,175.06697
1.661e-008,-120.52232,-166.06421
1.662e-008,-120.68268,-146.94286
1.663e-008,-120.7687,-127.66807
1.664e-008,-120.76865,-108.37509
1.665e-008,-120.67493,-89.22863
1.666e-008,-120.48729,-70.380707
1.667e-008,-120.21041,-51.980766
1.668e-008,-119.85311,-34.132221
1.669e-008,-119.42523,-16.90535
1.67e-008,-118.93769,-0.32758641
1.671e-008,-118.39713,15.609922
1.672e-008,-117.80985,30.950426
1.673e-008,-117.17922,45.754478
1.674e-008,-116.50749,60.095299
1.675e-008,-115.79674,74.066521
1.676e-008,-115.0489,87.757133
1.677e-008,-114.26734,101.25807
1.678e-008,-113.45621,114.65161
1.679e-008,-112.6207,128.0132
1.68e-008,-111.76694,141.40298
1.681e-008,-110.90135,154.86636
1.682e-008,-110.03016,168.43759
1.683e-008,-109.15917,-177.86131
1.684e-008,-108.29395,-164.01967
1.685e-008,-107.43893,-150.03207
1.686e-008,-106.59775,-135.90062
1.687e-008,-105.77357,-121.62861
1.688e-008,-104.96877,-107.22446
1.689e-008,-104.18503,-92.696579
1.69e-008,-103.42348,-78.054573
1.691e-008,-102.68511,-63.307564
1.692e-008,-101.9704,-48.464989
1.693e-008,-101.27953,-33.535332
1.694e-008,-100.61248,-18.526831
1.695e-008,-99.969284,-3.4467204
1.696e-008,-99.349548,11.69737
1.697e-008,-98.752983,26.8999
1.698e-008,-98.179199,42.154762
1.699e-008,-97.627701,57.457054
1.7e-008,-97.098053,72.801872
1.701e-008,-96.589729,88.185265
1.702e-008,-96.102211,103.60312
1.703e-008,-95.635033,119.05236
1.704e-008,-95.18763,134.52974
1.705e-008,-94.759529,150.03241
1.706e-008,-94.35022,165.55806
1.707e-008,-93.959229,-178.89574
1.708e-008,-93.586044,-163.33107
1.709e-008,-93.230209,-147.74973
1.71e-008,-92.891266,-132.15353
1.711e-008,-92.568779,-116.544
1.712e-008,-92.262283,-100.92252
1.713e-008,-91.971382,-85.290428
1.714e-008,-91.695625,-69.648949
1.715e-008,-91.434631,-53.999062
1.716e-008,-91.187973,-38.341873
1.717e-008,-90.955261,-22.678144
1.718e-008,-90.736092,-7.0087252
1.719e-008,-90.530106,8.6654224
1.72e-008,-90.336899,24.343855
1.721e-008,-90.156113,40.025814
1.722e-008,-89.98735,55.710934
1.723e-008,-89.830254,71.398537
1.724e-008,-89.684448,87.088257
1.725e-008,-89.549545,102.77981
1.726e-008,-89.425186,118.47276
1.727e-008,-89.310997,134.16682
1.728e-008,-89.206589,149.86195
1.729e-008,-89.111603,165.55788
1.73e-008,-89.02565,-178.74542
1.731e-008,-88.948349,-163.04799
1.732e-008,-88.879311,-147.34985
1.733e-008,-88.818153,-131.65089
1.734e-008,-88.764488,-115.9508
1.735e-008,-88.717918,-100.24963
1.736e-008,-88.678047,-84.546944
1.737e-008,-88.644478,-68.84256
1.738e-008,-88.616821,-53.135944
1.739e-008,-88.594681,-37.42667
1.74e-008,-88.577644,-21.714266
1.741e-008,-88.565331,-5.9982224
1.742e-008,-88.557343,9.722146
1.743e-008,-88.553291,25.447578
1.744e-008,-88.552788,41.178619
1.745e-008,-88.555473,56.916164
1.746e-008,-88.560959,72.660889
1.747e-008,-88.568901,88.413696
1.748e-008,-88.578957,104.17543
1.749e-008,-88.590782,119.94678
1.75e-008,-88.60408,135.72881
1.751e-008,-88.61853,151.52225
1.752e-008,-88.633865,167.32793
1.753e-008,-88.649826,-176.85333
1.754e-008,-88.666183,-161.02083
1.755e-008,-88.682701,-145.17377
1.756e-008,-88.699219,-129.31154
1.757e-008,-88.715553,-113.43359
1.758e-008,-88.73156,-97.539314
1.759e-008,-88.747154,-81.628288
1.76e-008,-88.762238,-65.700241
1.761e-008,-88.776756,-49.754856
1.762e-008,-88.79068,-33.791969
1.763e-008,-88.804024,-17.811567
1.764e-008,-88.816803,-1.8136748
1.765e-008,-88.829063,14.201671
1.766e-008,-88.840889,30.234097
1.767e-008,-88.852386,46.283463
1.768e-008,-88.863678,62.34935
1.769e-008,-88.874886,78.431213
1.77e-008,-88.886215,94.528557
1.771e-008,-88.897812,110.64077
1.772e-008,-88.909889,126.76723
1.773e-008,-88.922661,142.90738
1.774e-008,-88.93634,159.0603
1.775e-008,-88.951172,175.22543
1.776e-008,-88.967392,-168.59802
1.777e-008,-88.985245,-152.41078
1.778e-008,-89.004997,-136.21364
1.779e-008,-89.026894,-120.00726
1.78e-008,-89.051186,-103.79243
1.781e-008,-89.07814,-87.569725
1.782e-008,-89.107986,-71.339897
1.783e-008,-89.140984,-55.103329
1.784e-008,-89.177383,-38.86084
1.785e-008,-89.217392,-22.612711
1.786e-008,-89.261246,-6.3596287
1.787e-008,-89.309135,9.8982468
1.788e-008,-89.361298,26.160412
1.789e-008,-89.4179,42.426613
1.79e-008,-89.479103,58.69664
1.791e-008,-89.54509,74.970261
1.792e-008,-89.615997,91.247498
1.793e-008,-89.69194,107.52818
1.794e-008,-89.773048,123.81236
1.795e-008,-89.85939,140.10004
1.796e-008,-89.951057,156.39143
1.797e-008,-90.048111,172.68666
1.798e-008,-90.150574,-171.01401
1.799e-008,-90.258469,-154.71027
1.8e-008,-90.371811,-138.40176
1.801e-008,-90.490562,-122.0881
1.802e-008,-90.614662,-105.76884
1.803e-008,-90.744095,-89.443367
1.804e-008,-90.878746,-73.111229
1.805e-008,-91.018524,-56.771797
1.806e-008,-91.163307,-40.424301
1.807e-008,-91.312943,-24.068153
1.808e-008,-91.467293,-7.7025342
1.809e-008,-91.626175,8.6733456
1.81e-008,-91.789375,25.060532
1.811e-008,-91.956703,41.459538
1.812e-008,-92.127922,57.871578
1.813e-008,-92.302818,74.297424
1.814e-008,-92.48111,90.738342
1.815e-008,-92.662598,107.19516
1.816e-008,-92.846977,123.66895
1.817e-008,-93.033981,140.16092
1.818e-008,-93.223381,156.67218
1.819e-008,-93.414917,173.20375
1.82e-008,-93.608345,-170.24294
1.821e-008,-93.803421,-153.66678
1.822e-008,-93.999962,-137.06638
1.823e-008,-94.197769,-120.4405
1.824e-008,-94.396698,-103.78772
1.825e-008,-94.596626,-87.106377
1.826e-008,-94.797508,-70.394867
1.827e-008,-94.999252,-53.651455
1.828e-008,-95.201965,-36.874134
1.829e-008,-95.40564,-20.060995
1.83e-008,-95.610481,-3.2091472
1.831e-008,-95.816658,13.683714
1.832e-008,-96.024437,30.621258
1.833e-008,-96.234192,47.606331
1.834e-008,-96.446289,64.643814
1.835e-008,-96.661186,81.73819
1.836e-008,-96.879425,98.894943
1.837e-008,-97.101532,116.12105
1.838e-008,-97.328186,133.42346
1.839e-008,-97.559952,150.81154
1.84e-008,-97.797501,168.2955
1.841e-008,-98.041374,-174.11264
1.842e-008,-98.292107,-156.39917
1.843e-008,-98.550056,-138.54778
1.844e-008,-98.815414,-120.53954
1.845e-008,-99.087967,-102.35325
1.846e-008,-99.367149,-83.96479
1.847e-008,-99.651611,-65.346245
1.848e-008,-99.93927,-46.46735
1.849e-008,-100.22694,-27.29636
1.85e-008,-100.50978,-7.7995
1.851e-008,-100.78143,12.054357
1.852e-008,-101.03324,32.29245
1.853e-008,-101.2545,52.930523
1.854e-008,-101.43255,73.966873
1.855e-008,-101.55329,95.376541
1.856e-008,-101.60275,117.10324
1.857e-008,-101.56903,139.06023
1.858e-008,-101.44386,161.13289
1.859e-008,-101.22493,-176.80885
1.86e-008,-100.91589,-154.89381
1.861e-008,-100.52598,-133.23492
1.862e-008,-100.06821,-111.91684
1.863e-008,-99.557312,-90.991539
1.864e-008,-99.007957,-70.482964
1.865e-008,-98.433502,-50.389935
1.866e-008,-97.845093,-30.695482
1.867e-008,-97.251862,-11.371631
1.868e-008,-96.660805,7.6135693
1.869e-008,-96.077202,26.293621
1.87e-008,-95.504852,44.701199
1.871e-008,-94.946465,62.867153
1.872e-008,-94.403801,80.818825
1.873e-008,-93.878098,98.580826
1.874e-008,-93.370056,116.17547
1.875e-008,-92.880028,133.62183
1.876e-008,-92.408127,150.93652
1.877e-008,-91.954361,168.13429
1.878e-008,-91.518501,-174.772
1.879e-008,-91.100357,-157.77139
1.88e-008,-90.699608,-140.854
1.881e-008,-90.315948,-124.01134
1.882e-008,-89.949013,-107.23587
1.883e-008,-89.598488,-90.521225
1.884e-008,-89.264046,-73.861397
1.885e-008,-88.945335,-57.251617
1.886e-008,-88.642082,-40.687084
1.887e-008,-88.353966,-24.163893
1.888e-008,-88.080704,-7.6784286
1.889e-008,-87.822029,8.7722769
1.89e-008,-87.577705,25.191275
1.891e-008,-87.347496,41.581032
1.892e-008,-87.131203,57.943707
1.893e-008,-86.928635,74.281349
1.894e-008,-86.739578,90.595886
1.895e-008,-86.563919,106.88887
1.896e-008,-86.401505,123.16166
1.897e-008,-86.25219,139.41582
1.898e-008,-86.115883,155.65239
1.899e-008,-85.99247,171.87238
1.9e-008,-85.881882,-171.92323
1.901e-008,-85.784065,-155.73366
1.902e-008,-85.698959,-139.55801
1.903e-008,-85.626526,-123.39578
1.904e-008,-85.56675,-107.2464
1.905e-008,-85.519646,-91.109192
1.906e-008,-85.485199,-74.983971
1.907e-008,-85.46347,-58.870255
1.908e-008,-85.454498,-42.767845
1.909e-008,-85.458344,-26.67642
1.91e-008,-85.47509,-10.596012
1.911e-008,-85.504845,5.4735675
1.912e-008,-85.547722,21.532282
1.913e-008,-85.603889,37.580143
1.914e-008,-85.673508,53.616802
1.915e-008,-85.756767,69.642273
1.916e-008,-85.853882,85.656189
1.917e-008,-85.965126,101.65808
1.918e-008,-86.090767,117.64761
1.919e-008,-86.231133,133.6241
1.92e-008,-86.386574,149.58687
1.921e-008,-86.557487,165.53522
1.922e-008,-86.744331,-178.53192
1.923e-008,-86.947609,-162.61557
1.924e-008,-87.167862,-146.71696
1.925e-008,-87.405739,-130.83769
1.926e-008,-87.661949,-114.97932
1.927e-008,-87.937271,-99.143959
1.928e-008,-88.232605,-83.333794
1.929e-008,-88.548973,-67.551544
1.93e-008,-88.887489,-51.80043
1.931e-008,-89.249481,-36.08411
1.932e-008,-89.636429,-20.406954
1.933e-008,-90.050026,-4.7744265
1.934e-008,-90.492241,10.807469
1.935e-008,-90.965332,26.330883
1.936e-008,-91.471954,41.786419
1.937e-008,-92.015198,57.162117
1.938e-008,-92.598701,72.443527
1.939e-008,-93.226807,87.611794
1.94e-008,-93.904709,102.64246
1.941e-008,-94.638634,117.50333
1.942e-008,-95.436172,132.15117
1.943e-008,-96.306496,146.52638
1.944e-008,-97.260826,160.54469
1.945e-008,-98.31263,174.08365
1.946e-008,-99.477684,-173.03929
1.947e-008,-100.77258,-161.10587
1.948e-008,-102.20994,-150.56161
1.949e-008,-103.78217,-142.11172
1.95e-008,-105.41849,-136.81044
1.951e-008,-106.89017,-135.83128
1.952e-008,-107.73804,-139.1329
1.953e-008,-107.55803,-143.55643
1.954e-008,-106.5172,-144.83446
1.955e-008,-105.11849,-141.56255
1.956e-008,-103.70179,-134.60205
1.957e-008,-102.39811,-125.13699
1.958e-008,-101.23645,-114.03384
1.959e-008,-100.21043,-101.84831
1.96e-008,-99.304054,-88.930054
1.961e-008,-98.500633,-75.502777
1.962e-008,-97.785225,-61.714542
1.963e-008,-97.145302,-47.666195
1.964e-008,-96.570442,-33.428082
1.965e-008,-96.052025,-19.051447
1.966e-008,-95.582848,-4.573144
1.967e-008,-95.156853,9.9782009
1.968e-008,-94.768936,24.581053
1.969e-008,-94.414719,39.218323
1.97e-008,-94.090401,53.877277
1.971e-008,-93.792664,68.547104
1.972e-008,-93.518547,83.219513
1.973e-008,-93.265457,97.887886
1.974e-008,-93.031052,112.5472
1.975e-008,-92.813179,127.1935
1.976e-008,-92.609871,141.82404
1.977e-008,-92.419388,156.43671
1.978e-008,-92.24012,171.03065
1.979e-008,-92.070526,-174.39432
1.98e-008,-91.909233,-159.83801
1.981e-008,-91.755035,-145.29904
1.982e-008,-91.606766,-130.77586
1.983e-008,-91.463425,-116.26597
1.984e-008,-91.32412,-101.76671
1.985e-008,-91.188034,-87.274971
1.986e-008,-91.054535,-72.787178
1.987e-008,-90.92305,-58.299442
1.988e-008,-90.793152,-43.807796
1.989e-008,-90.664505,-29.30814
1.99e-008,-90.536911,-14.79628
1.991e-008,-90.410263,-0.26814085
1.992e-008,-90.284554,14.280202
1.993e-008,-90.159843,28.852577
1.994e-008,-90.036324,43.452515
1.995e-008,-89.914215,58.083179
1.996e-008,-89.793823,72.747673
1.997e-008,-89.675514,87.448357
1.998e-008,-89.559654,102.18751
1.999e-008,-89.446709,116.96691
2e-008,-89.337112,131.78793
END

