!CSV A.01.01
!Keysight Technologies,N5227B,US58420762,A.13.80.08
!Date: Monday, November 20, 2023 16:13:23
!Source: Standard

BEGIN CH1_DATA
Time(s),S21(DB),S21(DEG)
1e-008,-116.91255,-2.0607951
1.001e-008,-117.22063,15.808854
1.002e-008,-117.54337,33.862743
1.003e-008,-117.87728,52.112358
1.004e-008,-118.21839,70.575302
1.005e-008,-118.5611,89.265427
1.006e-008,-118.89901,108.19089
1.007e-008,-119.22544,127.35043
1.008e-008,-119.53288,146.73537
1.009e-008,-119.81233,166.32364
1.01e-008,-120.05602,-173.9223
1.011e-008,-120.25822,-154.05083
1.012e-008,-120.4129,-134.12129
1.013e-008,-120.51765,-114.20826
1.014e-008,-120.57251,-94.386246
1.015e-008,-120.5805,-74.719345
1.016e-008,-120.54573,-55.272301
1.017e-008,-120.47526,-36.089882
1.018e-008,-120.37679,-17.212618
1.019e-008,-120.25768,1.345782
1.02e-008,-120.12469,19.572182
1.021e-008,-119.98499,37.472355
1.022e-008,-119.8439,55.049431
1.023e-008,-119.70547,72.31897
1.024e-008,-119.57355,89.295441
1.025e-008,-119.45106,105.99597
1.026e-008,-119.33948,122.43735
1.027e-008,-119.2408,138.63844
1.028e-008,-119.15517,154.61057
1.029e-008,-119.08343,170.3719
1.03e-008,-119.02548,-174.06084
1.031e-008,-118.98109,-158.67606
1.032e-008,-118.95033,-143.46255
1.033e-008,-118.93232,-128.40594
1.034e-008,-118.92699,-113.49239
1.035e-008,-118.9335,-98.711899
1.036e-008,-118.95155,-84.055305
1.037e-008,-118.98026,-69.509377
1.038e-008,-119.01997,-55.062592
1.039e-008,-119.06951,-40.70734
1.04e-008,-119.12932,-26.434145
1.041e-008,-119.1991,-12.229163
1.042e-008,-119.27901,1.9146892
1.043e-008,-119.36902,16.00502
1.044e-008,-119.47013,30.050367
1.045e-008,-119.58238,44.057987
1.046e-008,-119.70641,58.035519
1.047e-008,-119.84326,71.986801
1.048e-008,-119.99408,85.916977
1.049e-008,-120.15934,99.829712
1.05e-008,-120.34052,113.72701
1.051e-008,-120.53867,127.60792
1.052e-008,-120.75538,141.47519
1.053e-008,-120.99122,155.32468
1.054e-008,-121.24824,169.15506
1.055e-008,-121.52734,-177.04155
1.056e-008,-121.83031,-163.26633
1.057e-008,-122.15779,-149.53091
1.058e-008,-122.51149,-135.84334
1.059e-008,-122.89189,-122.21573
1.06e-008,-123.30116,-108.65845
1.061e-008,-123.73864,-95.18679
1.062e-008,-124.20513,-81.820442
1.063e-008,-124.70165,-68.575752
1.064e-008,-125.22643,-55.474323
1.065e-008,-125.77903,-42.538712
1.066e-008,-126.35669,-29.790157
1.067e-008,-126.9575,-17.255466
1.068e-008,-127.5752,-4.9465561
1.069e-008,-128.20467,7.116456
1.07e-008,-128.8372,18.93807
1.071e-008,-129.46466,30.522882
1.072e-008,-130.07643,41.917809
1.073e-008,-130.66185,53.177727
1.074e-008,-131.2122,64.397537
1.075e-008,-131.72144,75.712364
1.076e-008,-132.18776,87.271332
1.077e-008,-132.61377,99.226227
1.078e-008,-133.00571,111.75724
1.079e-008,-133.37378,125.02981
1.08e-008,-133.72406,139.21425
1.081e-008,-134.06319,154.46536
1.082e-008,-134.38603,170.94984
1.083e-008,-134.67717,-171.18369
1.084e-008,-134.90179,-151.83319
1.085e-008,-135.00839,-130.99913
1.086e-008,-134.93661,-108.8817
1.087e-008,-134.62967,-85.913895
1.088e-008,-134.07011,-62.726074
1.089e-008,-133.28783,-39.915298
1.09e-008,-132.33759,-17.918737
1.091e-008,-131.29404,3.1023338
1.092e-008,-130.21149,23.158512
1.093e-008,-129.1337,42.350353
1.094e-008,-128.08659,60.829884
1.095e-008,-127.08515,78.718727
1.096e-008,-126.13695,96.144623
1.097e-008,-125.24532,113.19731
1.098e-008,-124.40998,129.95854
1.099e-008,-123.62953,146.47702
1.1e-008,-122.90263,162.80936
1.101e-008,-122.22691,178.98192
1.102e-008,-121.60017,-164.9731
1.103e-008,-121.02011,-149.03337
1.104e-008,-120.48444,-133.18015
1.105e-008,-119.99086,-117.40533
1.106e-008,-119.53853,-101.69343
1.107e-008,-119.12482,-86.041061
1.108e-008,-118.74872,-70.43618
1.109e-008,-118.40856,-54.878193
1.11e-008,-118.10349,-39.360729
1.111e-008,-117.83289,-23.882212
1.112e-008,-117.59455,-8.4370975
1.113e-008,-117.38903,6.9715343
1.114e-008,-117.21429,22.349741
1.115e-008,-117.07044,37.693489
1.116e-008,-116.95683,53.007233
1.117e-008,-116.87301,68.288689
1.118e-008,-116.81812,83.539993
1.119e-008,-116.79297,98.75621
1.12e-008,-116.79559,113.94233
1.121e-008,-116.82737,129.0947
1.122e-008,-116.88686,144.20976
1.123e-008,-116.97495,159.29063
1.124e-008,-117.09106,174.33487
1.125e-008,-117.23496,-170.65691
1.126e-008,-117.40749,-155.69341
1.127e-008,-117.60826,-140.76535
1.128e-008,-117.8369,-125.88069
1.129e-008,-118.09442,-111.03574
1.13e-008,-118.38074,-96.234779
1.131e-008,-118.69597,-81.475204
1.132e-008,-119.04131,-66.758469
1.133e-008,-119.4157,-52.078686
1.134e-008,-119.82077,-37.439835
1.135e-008,-120.25732,-22.8312
1.136e-008,-120.72521,-8.2542324
1.137e-008,-121.22672,6.3027925
1.138e-008,-121.76229,20.851717
1.139e-008,-122.3333,35.404209
1.14e-008,-122.94243,49.982059
1.141e-008,-123.59124,64.613136
1.142e-008,-124.28403,79.330521
1.143e-008,-125.02248,94.178535
1.144e-008,-125.81345,109.22026
1.145e-008,-126.65952,124.54984
1.146e-008,-127.56902,140.26108
1.147e-008,-128.5452,156.53621
1.148e-008,-129.59373,173.58328
1.149e-008,-130.70787,-168.2755
1.15e-008,-131.86804,-148.62259
1.151e-008,-133.0162,-126.92596
1.152e-008,-134.03069,-102.72652
1.153e-008,-134.70952,-75.996857
1.154e-008,-134.84001,-47.808918
1.155e-008,-134.37096,-20.099854
1.156e-008,-133.45618,5.5422425
1.157e-008,-132.31927,28.621523
1.158e-008,-131.12553,49.452553
1.159e-008,-129.96407,68.577553
1.16e-008,-128.87164,86.449608
1.161e-008,-127.85961,103.43052
1.162e-008,-126.92825,119.77094
1.163e-008,-126.07463,135.64415
1.164e-008,-125.2915,151.18222
1.165e-008,-124.57427,166.4693
1.166e-008,-123.91745,-178.43472
1.167e-008,-123.31664,-163.48456
1.168e-008,-122.76752,-148.64409
1.169e-008,-122.26778,-133.89857
1.17e-008,-121.81393,-119.22728
1.171e-008,-121.40398,-104.62353
1.172e-008,-121.03543,-90.076591
1.173e-008,-120.70683,-75.588425
1.174e-008,-120.4165,-61.15559
1.175e-008,-120.16304,-46.778309
1.176e-008,-119.94505,-32.461857
1.177e-008,-119.76163,-18.210684
1.178e-008,-119.61117,-4.0290904
1.179e-008,-119.49313,10.072212
1.18e-008,-119.40556,24.0863
1.181e-008,-119.34741,38.003952
1.182e-008,-119.31728,51.810654
1.183e-008,-119.3135,65.500473
1.184e-008,-119.33372,79.056496
1.185e-008,-119.37598,92.466354
1.186e-008,-119.43752,105.71931
1.187e-008,-119.51497,118.80165
1.188e-008,-119.60438,131.70259
1.189e-008,-119.70142,144.41687
1.19e-008,-119.80119,156.93839
1.191e-008,-119.89814,169.2717
1.192e-008,-119.98622,-178.57687
1.193e-008,-120.05958,-166.58788
1.194e-008,-120.11263,-154.73532
1.195e-008,-120.14055,-142.97971
1.196e-008,-120.13879,-131.27974
1.197e-008,-120.10572,-119.58211
1.198e-008,-120.04047,-107.83373
1.199e-008,-119.94449,-95.980537
1.2e-008,-119.82065,-83.976158
1.201e-008,-119.67327,-71.7752
1.202e-008,-119.5081,-59.344891
1.203e-008,-119.33002,-46.659275
1.204e-008,-119.14511,-33.704407
1.205e-008,-118.95913,-20.470383
1.206e-008,-118.7769,-6.9514346
1.207e-008,-118.60262,6.8484621
1.208e-008,-118.44054,20.925987
1.209e-008,-118.29334,35.276722
1.21e-008,-118.16323,49.89373
1.211e-008,-118.05254,64.772293
1.212e-008,-117.96191,79.907593
1.213e-008,-117.89244,95.296516
1.214e-008,-117.8441,110.93626
1.215e-008,-117.8167,126.82886
1.216e-008,-117.80935,142.97189
1.217e-008,-117.8207,159.36896
1.218e-008,-117.84875,176.02422
1.219e-008,-117.89117,-167.06126
1.22e-008,-117.94484,-149.88373
1.221e-008,-118.00587,-132.44318
1.222e-008,-118.06976,-114.74054
1.223e-008,-118.13142,-96.783707
1.224e-008,-118.18588,-78.581718
1.225e-008,-118.22715,-60.15728
1.226e-008,-118.24966,-41.536549
1.227e-008,-118.24852,-22.7533
1.228e-008,-118.21929,-3.854733
1.229e-008,-118.15932,15.110281
1.23e-008,-118.06718,34.086544
1.231e-008,-117.94309,53.021057
1.232e-008,-117.7897,71.862175
1.233e-008,-117.60984,90.561241
1.234e-008,-117.40826,109.08196
1.235e-008,-117.19012,127.39371
1.236e-008,-116.96085,145.4758
1.237e-008,-116.72555,163.31577
1.238e-008,-116.48913,-179.09521
1.239e-008,-116.25563,-161.75743
1.24e-008,-116.02907,-144.66904
1.241e-008,-115.81242,-127.82438
1.242e-008,-115.60822,-111.21801
1.243e-008,-115.41782,-94.844315
1.244e-008,-115.24296,-78.694992
1.245e-008,-115.0841,-62.764568
1.246e-008,-114.94186,-47.046165
1.247e-008,-114.81586,-31.535267
1.248e-008,-114.70613,-16.227102
1.249e-008,-114.61143,-1.1167996
1.25e-008,-114.53111,13.798438
1.251e-008,-114.46335,28.524389
1.252e-008,-114.40723,43.065441
1.253e-008,-114.36004,57.423927
1.254e-008,-114.32038,71.609154
1.255e-008,-114.28585,85.625656
1.256e-008,-114.25426,99.485245
1.257e-008,-114.22314,113.19788
1.258e-008,-114.19036,126.77837
1.259e-008,-114.15391,140.23979
1.26e-008,-114.1119,153.60428
1.261e-008,-114.06304,166.88977
1.262e-008,-114.00617,-179.88203
1.263e-008,-113.94101,-166.68839
1.264e-008,-113.8675,-153.50557
1.265e-008,-113.78634,-140.31383
1.266e-008,-113.69879,-127.08994
1.267e-008,-113.60621,-113.81721
1.268e-008,-113.5106,-100.47684
1.269e-008,-113.41433,-87.057999
1.27e-008,-113.31982,-73.547478
1.271e-008,-113.22955,-59.939289
1.272e-008,-113.14617,-46.226707
1.273e-008,-113.07214,-32.406601
1.274e-008,-113.0099,-18.477737
1.275e-008,-112.9619,-4.4416957
1.276e-008,-112.93026,9.7023401
1.277e-008,-112.91724,23.948557
1.278e-008,-112.9247,38.295216
1.279e-008,-112.95473,52.737148
1.28e-008,-113.00915,67.271423
1.281e-008,-113.08954,81.891869
1.282e-008,-113.19798,96.594688
1.283e-008,-113.33616,111.37477
1.284e-008,-113.50578,126.23027
1.285e-008,-113.70907,141.15269
1.286e-008,-113.94779,156.14113
1.287e-008,-114.22455,171.1913
1.288e-008,-114.5417,-173.70088
1.289e-008,-114.90208,-158.53793
1.29e-008,-115.30898,-143.32443
1.291e-008,-115.76623,-128.0611
1.292e-008,-116.27821,-112.75089
1.293e-008,-116.85033,-97.396423
1.294e-008,-117.48911,-81.998627
1.295e-008,-118.20263,-66.560013
1.296e-008,-119.00103,-51.081768
1.297e-008,-119.89738,-35.56374
1.298e-008,-120.90864,-20.007889
1.299e-008,-122.05872,-4.4121461
1.3e-008,-123.38017,11.222974
1.301e-008,-124.92249,26.898384
1.302e-008,-126.76294,42.619595
1.303e-008,-129.03604,58.399429
1.304e-008,-132.00266,74.249283
1.305e-008,-136.30565,90.236282
1.306e-008,-144.47183,106.82397
1.307e-008,-151.05359,-61.113056
1.308e-008,-139.20551,-43.217377
1.309e-008,-134.68112,-26.952005
1.31e-008,-131.96513,-10.792154
1.311e-008,-130.1088,5.3836269
1.312e-008,-128.76886,21.617697
1.313e-008,-127.78223,37.926998
1.314e-008,-127.06092,54.331409
1.315e-008,-126.55276,70.85482
1.316e-008,-126.22473,87.531631
1.317e-008,-126.05593,104.39255
1.318e-008,-126.03487,121.48651
1.319e-008,-126.15522,138.87662
1.32e-008,-126.41345,156.65176
1.321e-008,-126.81101,174.94846
1.322e-008,-127.34835,-166.06635
1.323e-008,-128.02588,-146.1122
1.324e-008,-128.83282,-124.81544
1.325e-008,-129.7318,-101.63759
1.326e-008,-130.63269,-75.954651
1.327e-008,-131.34589,-47.330826
1.328e-008,-131.6042,-16.277349
1.329e-008,-131.21988,15.281692
1.33e-008,-130.27336,45.027733
1.331e-008,-129.02481,71.844643
1.332e-008,-127.70197,95.863007
1.333e-008,-126.43043,117.68217
1.334e-008,-125.2623,137.90211
1.335e-008,-124.21166,156.95587
1.336e-008,-123.27776,175.15744
1.337e-008,-122.45252,-167.29248
1.338e-008,-121.72782,-150.24228
1.339e-008,-121.09489,-133.59985
1.34e-008,-120.54678,-117.29656
1.341e-008,-120.07714,-101.28757
1.342e-008,-119.67966,-85.541649
1.343e-008,-119.3505,-70.041595
1.344e-008,-119.08505,-54.775764
1.345e-008,-118.88039,-39.748138
1.346e-008,-118.73256,-24.959196
1.347e-008,-118.63917,-10.424022
1.348e-008,-118.59695,3.842968
1.349e-008,-118.60274,17.818521
1.35e-008,-118.65195,31.473207
1.351e-008,-118.74009,44.775299
1.352e-008,-118.8608,57.687889
1.353e-008,-119.00633,70.174629
1.354e-008,-119.16568,82.200424
1.355e-008,-119.32619,93.736839
1.356e-008,-119.47171,104.77858
1.357e-008,-119.58423,115.34108
1.358e-008,-119.645,125.47911
1.359e-008,-119.6374,135.29146
1.36e-008,-119.54845,144.91399
1.361e-008,-119.37352,154.5061
1.362e-008,-119.11484,164.23117
1.363e-008,-118.78367,174.22777
1.364e-008,-118.39538,-175.39275
1.365e-008,-117.96809,-164.57498
1.366e-008,-117.51919,-153.29126
1.367e-008,-117.06438,-141.55093
1.368e-008,-116.61658,-129.37509
1.369e-008,-116.186,-116.80561
1.37e-008,-115.78002,-103.87968
1.371e-008,-115.40383,-90.640457
1.372e-008,-115.06235,-77.123932
1.373e-008,-114.75765,-63.3671
1.374e-008,-114.4919,-49.399284
1.375e-008,-114.2665,-35.249672
1.376e-008,-114.08283,-20.938911
1.377e-008,-113.94148,-6.4927502
1.378e-008,-113.84315,8.0767574
1.379e-008,-113.78882,22.750948
1.38e-008,-113.77977,37.517509
1.381e-008,-113.81689,52.364483
1.382e-008,-113.90124,67.284332
1.383e-008,-114.03479,82.267677
1.384e-008,-114.21947,97.306084
1.385e-008,-114.45815,112.39388
1.386e-008,-114.75324,127.52873
1.387e-008,-115.10907,142.70479
1.388e-008,-115.53033,157.9198
1.389e-008,-116.02303,173.17371
1.39e-008,-116.59414,-171.53413
1.391e-008,-117.25425,-156.20238
1.392e-008,-118.01521,-140.82481
1.393e-008,-118.89471,-125.38634
1.394e-008,-119.91503,-109.87404
1.395e-008,-121.11015,-94.254562
1.396e-008,-122.52789,-78.463615
1.397e-008,-124.24736,-62.397999
1.398e-008,-126.39968,-45.800163
1.399e-008,-129.24326,-28.064831
1.4e-008,-133.36967,-7.1264119
1.401e-008,-140.44191,29.376484
1.402e-008,-142.28737,139.20978
1.403e-008,-134.7487,-176.00354
1.404e-008,-130.56149,-154.12321
1.405e-008,-127.84093,-136.3705
1.406e-008,-125.88449,-120.07831
1.407e-008,-124.39822,-104.507
1.408e-008,-123.23465,-89.37928
1.409e-008,-122.30852,-74.583702
1.41e-008,-121.56773,-60.064392
1.411e-008,-120.97591,-45.800743
1.412e-008,-120.50885,-31.794401
1.413e-008,-120.1461,-18.057432
1.414e-008,-119.87345,-4.6086769
1.415e-008,-119.67739,8.5281553
1.416e-008,-119.54562,21.322168
1.417e-008,-119.46539,33.742123
1.418e-008,-119.42419,45.755829
1.419e-008,-119.40733,57.343277
1.42e-008,-119.39902,68.491417
1.421e-008,-119.3812,79.213776
1.422e-008,-119.33662,89.548599
1.423e-008,-119.24821,99.565865
1.424e-008,-119.10267,109.37823
1.425e-008,-118.89214,119.11456
1.426e-008,-118.61538,128.91623
1.427e-008,-118.27837,138.9126
1.428e-008,-117.89198,149.21176
1.429e-008,-117.47039,159.88789
1.43e-008,-117.02912,170.97679
1.431e-008,-116.58229,-177.50891
1.432e-008,-116.14288,-165.58278
1.433e-008,-115.72115,-153.27011
1.434e-008,-115.32534,-140.60434
1.435e-008,-114.96206,-127.62038
1.436e-008,-114.63607,-114.35576
1.437e-008,-114.35114,-100.84167
1.438e-008,-114.11024,-87.11142
1.439e-008,-113.91569,-73.19297
1.44e-008,-113.76975,-59.10955
1.441e-008,-113.67417,-44.884731
1.442e-008,-113.63113,-30.537338
1.443e-008,-113.64294,-16.087408
1.444e-008,-113.71198,-1.5486749
1.445e-008,-113.84142,13.063426
1.446e-008,-114.03491,27.733858
1.447e-008,-114.29717,42.449181
1.448e-008,-114.634,57.195313
1.449e-008,-115.05244,71.957291
1.45e-008,-115.56221,86.717941
1.451e-008,-116.17578,101.45518
1.452e-008,-116.90947,116.14413
1.453e-008,-117.78599,130.74489
1.454e-008,-118.83765,145.20175
1.455e-008,-120.11229,159.41812
1.456e-008,-121.6845,173.22667
1.457e-008,-123.68108,-173.72318
1.458e-008,-126.33772,-162.28117
1.459e-008,-130.1523,-155.15814
1.46e-008,-136.02658,-165.58549
1.461e-008,-137.1322,134.49298
1.462e-008,-131.02327,117.06801
1.463e-008,-126.97473,122.78162
1.464e-008,-124.21471,133.74413
1.465e-008,-122.17616,146.55052
1.466e-008,-120.59586,160.18922
1.467e-008,-119.33475,174.25854
1.468e-008,-118.31334,-171.43527
1.469e-008,-117.48135,-156.99974
1.47e-008,-116.8059,-142.50476
1.471e-008,-116.2646,-127.99368
1.472e-008,-115.8417,-113.50671
1.473e-008,-115.52599,-99.077187
1.474e-008,-115.30979,-84.738846
1.475e-008,-115.18753,-70.523186
1.476e-008,-115.15599,-56.473213
1.477e-008,-115.2129,-42.633091
1.478e-008,-115.35696,-29.062859
1.479e-008,-115.58732,-15.833302
1.48e-008,-115.90292,-3.0381665
1.481e-008,-116.3008,9.2032471
1.482e-008,-116.77503,20.738743
1.483e-008,-117.31176,31.381367
1.484e-008,-117.88512,40.910999
1.485e-008,-118.44973,49.114517
1.486e-008,-118.93419,55.861958
1.487e-008,-119.24483,61.260254
1.488e-008,-119.29163,65.774231
1.489e-008,-119.02998,70.2015
1.49e-008,-118.48909,75.374992
1.491e-008,-117.75314,81.844925
1.492e-008,-116.9174,89.78244
1.493e-008,-116.05825,99.096489
1.494e-008,-115.2255,109.5815
1.495e-008,-114.44851,121.01751
1.496e-008,-113.74149,133.20932
1.497e-008,-113.11129,146.00061
1.498e-008,-112.56023,159.26588
1.499e-008,-112.08843,172.91255
1.5e-008,-111.69508,-173.1348
1.501e-008,-111.3797,-158.93015
1.502e-008,-111.14159,-144.51863
1.503e-008,-110.98106,-129.93158
1.504e-008,-110.89928,-115.19663
1.505e-008,-110.89803,-100.33144
1.506e-008,-110.98044,-85.351982
1.507e-008,-111.15144,-70.265388
1.508e-008,-111.41737,-55.078678
1.509e-008,-111.78734,-39.790497
1.51e-008,-112.2736,-24.393597
1.511e-008,-112.89338,-8.8732977
1.512e-008,-113.67014,6.8018661
1.513e-008,-114.63884,22.684229
1.514e-008,-115.85122,38.872135
1.515e-008,-117.3903,55.561211
1.516e-008,-119.39925,73.167068
1.517e-008,-122.15032,92.784218
1.518e-008,-126.22476,118.16763
1.519e-008,-132.18549,168.85466
1.52e-008,-130.35913,-103.64003
1.521e-008,-124.67713,-64.752869
1.522e-008,-120.95264,-41.922523
1.523e-008,-118.34151,-23.268934
1.524e-008,-116.37936,-6.2557654
1.525e-008,-114.84438,9.9182386
1.526e-008,-113.61689,25.577038
1.527e-008,-112.62672,40.869225
1.528e-008,-111.82988,55.86058
1.529e-008,-111.19788,70.576767
1.53e-008,-110.71167,85.018265
1.531e-008,-110.35856,99.162376
1.532e-008,-110.13035,112.96972
1.533e-008,-110.02179,126.3765
1.534e-008,-110.02918,139.29628
1.535e-008,-110.14937,151.60463
1.536e-008,-110.37696,163.13501
1.537e-008,-110.70078,173.66206
1.538e-008,-111.09689,-177.09869
1.539e-008,-111.51716,-169.47188
1.54e-008,-111.87634,-163.72696
1.541e-008,-112.04748,-159.8642
1.542e-008,-111.89302,-157.34013
1.543e-008,-111.33895,-155.04613
1.544e-008,-110.42858,-151.79042
1.545e-008,-109.28828,-146.86554
1.546e-008,-108.05056,-140.15793
1.547e-008,-106.80932,-131.89983
1.548e-008,-105.6179,-122.42509
1.549e-008,-104.50177,-112.04536
1.55e-008,-103.47034,-101.01646
1.551e-008,-102.52464,-89.540169
1.552e-008,-101.6617,-77.773186
1.553e-008,-100.87641,-65.841888
1.554e-008,-100.16276,-53.849937
1.555e-008,-99.514069,-41.886177
1.556e-008,-98.922882,-30.029207
1.557e-008,-98.380775,-18.350445
1.558e-008,-97.877914,-6.9145522
1.559e-008,-97.402733,4.2217474
1.56e-008,-96.941467,15.013372
1.561e-008,-96.478043,25.432781
1.562e-008,-95.994537,35.478317
1.563e-008,-95.47213,45.181816
1.564e-008,-94.893082,54.61467
1.565e-008,-94.24324,63.886272
1.566e-008,-93.514442,73.133911
1.567e-008,-92.705978,82.504448
1.568e-008,-91.824394,92.133438
1.569e-008,-90.881851,102.12782
1.57e-008,-89.893562,112.55734
1.571e-008,-88.875328,123.45496
1.572e-008,-87.841705,134.82362
1.573e-008,-86.805008,146.64458
1.574e-008,-85.775024,158.88623
1.575e-008,-84.759079,171.51068
1.576e-008,-83.762428,-175.52162
1.577e-008,-82.788651,-162.24904
1.578e-008,-81.840065,-148.70717
1.579e-008,-80.917976,-134.9281
1.58e-008,-80.023033,-120.94032
1.581e-008,-79.155373,-106.76883
1.582e-008,-78.314789,-92.435379
1.583e-008,-77.500832,-77.958855
1.584e-008,-76.712936,-63.355694
1.585e-008,-75.950401,-48.640053
1.586e-008,-75.212502,-33.824287
1.587e-008,-74.498489,-18.919134
1.588e-008,-73.807602,-3.9338953
1.589e-008,-73.139099,11.123237
1.59e-008,-72.492249,26.245155
1.591e-008,-71.866364,41.425571
1.592e-008,-71.260773,56.658955
1.593e-008,-70.674828,71.940422
1.594e-008,-70.107948,87.265648
1.595e-008,-69.55954,102.63078
1.596e-008,-69.029068,118.03239
1.597e-008,-68.516029,133.46741
1.598e-008,-68.019928,148.93307
1.599e-008,-67.540321,164.42694
1.6e-008,-67.076782,179.94676
1.601e-008,-66.628906,-164.50949
1.602e-008,-66.196304,-148.94363
1.603e-008,-65.778633,-133.35732
1.604e-008,-65.375542,-117.75208
1.605e-008,-64.986725,-102.12928
1.606e-008,-64.611885,-86.490189
1.607e-008,-64.250732,-70.835968
1.608e-008,-63.903004,-55.16769
1.609e-008,-63.568451,-39.486343
1.61e-008,-63.246841,-23.792826
1.611e-008,-62.93795,-8.0879841
1.612e-008,-62.641571,7.627398
1.613e-008,-62.357506,23.352591
1.614e-008,-62.085571,39.086914
1.615e-008,-61.825596,54.82975
1.616e-008,-61.577412,70.580475
1.617e-008,-61.340866,86.338554
1.618e-008,-61.115818,102.10346
1.619e-008,-60.90213,117.87468
1.62e-008,-60.699673,133.65175
1.621e-008,-60.508335,149.43423
1.622e-008,-60.328003,165.22171
1.623e-008,-60.158573,-178.98625
1.624e-008,-59.999954,-163.19002
1.625e-008,-59.852047,-147.38997
1.626e-008,-59.714779,-131.58644
1.627e-008,-59.58807,-115.77979
1.628e-008,-59.471855,-99.970375
1.629e-008,-59.366066,-84.158485
1.63e-008,-59.270653,-68.34446
1.631e-008,-59.185555,-52.528595
1.632e-008,-59.110733,-36.711193
1.633e-008,-59.04615,-20.892567
1.634e-008,-58.991764,-5.0729909
1.635e-008,-58.947548,10.747227
1.636e-008,-58.913483,26.567802
1.637e-008,-58.889545,42.388439
1.638e-008,-58.875721,58.208858
1.639e-008,-58.872009,74.028763
1.64e-008,-58.878395,89.847839
1.641e-008,-58.89489,105.66582
1.642e-008,-58.921501,121.48238
1.643e-008,-58.958233,137.2972
1.644e-008,-59.005108,153.10999
1.645e-008,-59.062149,168.92039
1.646e-008,-59.129383,-175.27191
1.647e-008,-59.206844,-159.46724
1.648e-008,-59.294571,-143.66602
1.649e-008,-59.392605,-127.86856
1.65e-008,-59.500996,-112.07527
1.651e-008,-59.619801,-96.286583
1.652e-008,-59.749073,-80.502907
1.653e-008,-59.888889,-64.724693
1.654e-008,-60.039314,-48.952408
1.655e-008,-60.200436,-33.186562
1.656e-008,-60.372326,-17.427683
1.657e-008,-60.555084,-1.6763335
1.658e-008,-60.748802,14.066897
1.659e-008,-60.95359,29.801373
1.66e-008,-61.169556,45.526398
1.661e-008,-61.39682,61.241261
1.662e-008,-61.635506,76.945168
1.663e-008,-61.885742,92.637306
1.664e-008,-62.147678,108.31674
1.665e-008,-62.421455,123.98254
1.666e-008,-62.707226,139.63362
1.667e-008,-63.005165,155.26884
1.668e-008,-63.315434,170.88702
1.669e-008,-63.638218,-173.51321
1.67e-008,-63.973701,-157.9333
1.671e-008,-64.322083,-142.37483
1.672e-008,-64.683556,-126.83951
1.673e-008,-65.058334,-111.32922
1.674e-008,-65.44664,-95.846031
1.675e-008,-65.848686,-80.392181
1.676e-008,-66.264694,-64.970154
1.677e-008,-66.694893,-49.582642
1.678e-008,-67.139519,-34.232639
1.679e-008,-67.598785,-18.923401
1.68e-008,-68.072914,-3.6585567
1.681e-008,-68.562111,11.557942
1.682e-008,-69.066574,26.721733
1.683e-008,-69.586464,41.827991
1.684e-008,-70.121918,56.87141
1.685e-008,-70.673035,71.846199
1.686e-008,-71.239838,86.745949
1.687e-008,-71.822289,101.56369
1.688e-008,-72.420265,116.29179
1.689e-008,-73.033485,130.92201
1.69e-008,-73.661568,145.44543
1.691e-008,-74.303909,159.85263
1.692e-008,-74.959694,174.13356
1.693e-008,-75.627831,-171.72202
1.694e-008,-76.306908,-157.72458
1.695e-008,-76.995132,-143.88414
1.696e-008,-77.690308,-130.2101
1.697e-008,-78.389755,-116.7103
1.698e-008,-79.09034,-103.39029
1.699e-008,-79.78846,-90.252258
1.7e-008,-80.480103,-77.293915
1.701e-008,-81.160995,-64.507248
1.702e-008,-81.826767,-51.877609
1.703e-008,-82.473244,-39.382744
1.704e-008,-83.096748,-26.992887
1.705e-008,-83.69445,-14.670985
1.706e-008,-84.264709,-2.3744881
1.707e-008,-84.807281,9.9430389
1.708e-008,-85.323433,22.32901
1.709e-008,-85.815979,34.8293
1.71e-008,-86.289032,47.486042
1.711e-008,-86.74778,60.335842
1.712e-008,-87.198181,73.409058
1.713e-008,-87.646622,86.729988
1.714e-008,-88.09967,100.31741
1.715e-008,-88.563904,114.18624
1.716e-008,-89.045723,128.34879
1.717e-008,-89.551407,142.81705
1.718e-008,-90.086967,157.6044
1.719e-008,-90.658371,172.72823
1.72e-008,-91.2714,-171.78801
1.721e-008,-91.931816,-155.91087
1.722e-008,-92.64521,-139.59399
1.723e-008,-93.416916,-122.77191
1.724e-008,-94.251343,-105.35358
1.725e-008,-95.151001,-87.212578
1.726e-008,-96.114128,-68.176788
1.727e-008,-97.13047,-48.017323
1.728e-008,-98.173653,-26.450062
1.729e-008,-99.189568,-3.1728907
1.73e-008,-100.08463,22.0121
1.731e-008,-100.72943,48.962082
1.732e-008,-101.00199,76.963966
1.733e-008,-100.8614,104.85001
1.734e-008,-100.37865,131.54218
1.735e-008,-99.684921,156.50459
1.736e-008,-98.901413,179.72447
1.737e-008,-98.10939,-158.54744
1.738e-008,-97.35363,-138.00244
1.739e-008,-96.654892,-118.3658
1.74e-008,-96.020569,-99.420273
1.741e-008,-95.451233,-81.001274
1.742e-008,-94.944267,-62.986324
1.743e-008,-94.495667,-45.284576
1.744e-008,-94.101128,-27.827841
1.745e-008,-93.756386,-10.565051
1.746e-008,-93.457527,6.5428419
1.747e-008,-93.200905,23.525881
1.748e-008,-92.983353,40.407391
1.749e-008,-92.801949,57.205387
1.75e-008,-92.65419,73.934204
1.751e-008,-92.537804,90.60524
1.752e-008,-92.450806,107.22717
1.753e-008,-92.391388,123.80724
1.754e-008,-92.358055,140.35094
1.755e-008,-92.349365,156.86269
1.756e-008,-92.364128,173.34578
1.757e-008,-92.401253,-170.19717
1.758e-008,-92.459831,-153.76433
1.759e-008,-92.539024,-137.35445
1.76e-008,-92.638168,-120.96656
1.761e-008,-92.756668,-104.60046
1.762e-008,-92.894051,-88.256157
1.763e-008,-93.04998,-71.933861
1.764e-008,-93.22419,-55.634151
1.765e-008,-93.416519,-39.357971
1.766e-008,-93.626976,-23.106171
1.767e-008,-93.855629,-6.8799248
1.768e-008,-94.102669,9.3191328
1.769e-008,-94.368446,25.489595
1.77e-008,-94.65345,41.629829
1.771e-008,-94.958321,57.737911
1.772e-008,-95.283859,73.812103
1.773e-008,-95.631073,89.850037
1.774e-008,-96.001213,105.84966
1.775e-008,-96.395744,121.80849
1.776e-008,-96.816505,137.72409
1.777e-008,-97.265602,153.59334
1.778e-008,-97.745651,169.41296
1.779e-008,-98.259773,-174.82062
1.78e-008,-98.811783,-159.11194
1.781e-008,-99.40625,-143.46637
1.782e-008,-100.04891,-127.8907
1.783e-008,-100.74684,-112.39309
1.784e-008,-101.50909,-96.985703
1.785e-008,-102.34718,-81.683998
1.786e-008,-103.27644,-66.51062
1.787e-008,-104.3175,-51.499619
1.788e-008,-105.49918,-36.703529
1.789e-008,-106.86336,-22.210987
1.79e-008,-108.4741,-8.1808529
1.791e-008,-110.43573,5.0706515
1.792e-008,-112.93347,16.816948
1.793e-008,-116.3272,24.982094
1.794e-008,-121.25024,21.345003
1.795e-008,-124.83241,-22.65836
1.796e-008,-119.82725,-53.782692
1.797e-008,-115.44282,-52.635105
1.798e-008,-112.41084,-43.323112
1.799e-008,-110.15228,-31.319731
1.8e-008,-108.3685,-18.147152
1.801e-008,-106.90221,-4.3775859
1.802e-008,-105.66265,9.7308187
1.803e-008,-104.59302,24.043777
1.804e-008,-103.65569,38.48568
1.805e-008,-102.82439,53.010841
1.806e-008,-102.08013,67.590088
1.807e-008,-101.40881,82.203926
1.808e-008,-100.79954,96.839096
1.809e-008,-100.24389,111.48638
1.81e-008,-99.735138,126.13924
1.811e-008,-99.267799,140.79279
1.812e-008,-98.837433,155.4436
1.813e-008,-98.4403,170.08926
1.814e-008,-98.073311,-175.27211
1.815e-008,-97.733826,-160.64171
1.816e-008,-97.419632,-146.02032
1.817e-008,-97.128761,-131.40872
1.818e-008,-96.859573,-116.80684
1.819e-008,-96.610603,-102.21497
1.82e-008,-96.380577,-87.632919
1.821e-008,-96.168373,-73.060387
1.822e-008,-95.973015,-58.496902
1.823e-008,-95.793663,-43.942059
1.824e-008,-95.629524,-29.395144
1.825e-008,-95.479904,-14.855428
1.826e-008,-95.344238,-0.32230869
1.827e-008,-95.222008,14.205233
1.828e-008,-95.112709,28.728064
1.829e-008,-95.015968,43.247215
1.83e-008,-94.931442,57.763744
1.831e-008,-94.858833,72.278694
1.832e-008,-94.797897,86.793129
1.833e-008,-94.748444,101.30833
1.834e-008,-94.71032,115.82545
1.835e-008,-94.683411,130.34555
1.836e-008,-94.667648,144.86996
1.837e-008,-94.66304,159.39993
1.838e-008,-94.669586,173.93657
1.839e-008,-94.687355,-171.519
1.84e-008,-94.716454,-156.96559
1.841e-008,-94.757004,-142.40196
1.842e-008,-94.809227,-127.82721
1.843e-008,-94.873329,-113.24026
1.844e-008,-94.949577,-98.640251
1.845e-008,-95.0383,-84.026222
1.846e-008,-95.139847,-69.397552
1.847e-008,-95.254639,-54.753223
1.848e-008,-95.38311,-40.093113
1.849e-008,-95.525764,-25.416431
1.85e-008,-95.683174,-10.723074
1.851e-008,-95.855934,3.9871993
1.852e-008,-96.044739,18.714472
1.853e-008,-96.250343,33.458549
1.854e-008,-96.473557,48.219105
1.855e-008,-96.715309,62.995441
1.856e-008,-96.976578,77.786758
1.857e-008,-97.258499,92.592026
1.858e-008,-97.562279,107.40965
1.859e-008,-97.889328,122.23782
1.86e-008,-98.241188,137.07423
1.861e-008,-98.619614,151.91583
1.862e-008,-99.026588,166.75891
1.863e-008,-99.464409,-178.40083
1.864e-008,-99.935631,-163.56932
1.865e-008,-100.44335,-148.75366
1.866e-008,-100.99106,-133.9633
1.867e-008,-101.58298,-119.2095
1.868e-008,-102.2241,-104.5077
1.869e-008,-102.92041,-89.878517
1.87e-008,-103.67935,-75.348488
1.871e-008,-104.50991,-60.95517
1.872e-008,-105.42345,-46.751022
1.873e-008,-106.43443,-32.812939
1.874e-008,-107.5611,-19.254028
1.875e-008,-108.82694,-6.2519436
1.876e-008,-110.26104,5.902822
1.877e-008,-111.89703,16.718222
1.878e-008,-113.75981,25.318651
1.879e-008,-115.81375,30.148998
1.88e-008,-117.78671,28.910671
1.881e-008,-118.89374,20.848289
1.882e-008,-118.39043,11.875156
1.883e-008,-116.80584,9.1885424
1.884e-008,-115.01968,13.118064
1.885e-008,-113.39596,21.347399
1.886e-008,-111.99967,32.139687
1.887e-008,-110.81239,44.502174
1.888e-008,-109.80031,57.880131
1.889e-008,-108.93285,71.949463
1.89e-008,-108.18566,86.51519
1.891e-008,-107.5392,101.45309
1.892e-008,-106.97803,116.68164
1.893e-008,-106.49022,132.14461
1.894e-008,-106.06608,147.80249
1.895e-008,-105.6976,163.62764
1.896e-008,-105.37827,179.59856
1.897e-008,-105.10249,-164.29958
1.898e-008,-104.8657,-148.07867
1.899e-008,-104.66367,-131.74809
1.9e-008,-104.49284,-115.31509
1.901e-008,-104.34986,-98.786377
1.902e-008,-104.23207,-82.166809
1.903e-008,-104.13649,-65.461029
1.904e-008,-104.06064,-48.675056
1.905e-008,-104.00235,-31.812136
1.906e-008,-103.95919,-14.878162
1.907e-008,-103.92923,2.1219175
1.908e-008,-103.91032,19.182301
1.909e-008,-103.90068,36.29673
1.91e-008,-103.89851,53.45808
1.911e-008,-103.90218,70.658752
1.912e-008,-103.91002,87.890221
1.913e-008,-103.92072,105.14358
1.914e-008,-103.93298,122.4086
1.915e-008,-103.94566,139.67575
1.916e-008,-103.95787,156.93407
1.917e-008,-103.96875,174.17303
1.918e-008,-103.97762,-168.61821
1.919e-008,-103.98402,-151.45026
1.92e-008,-103.9876,-134.33394
1.921e-008,-103.98813,-117.27847
1.922e-008,-103.98539,-100.29349
1.923e-008,-103.97939,-83.387192
1.924e-008,-103.97005,-66.567665
1.925e-008,-103.9574,-49.840729
1.926e-008,-103.94138,-33.212311
1.927e-008,-103.92197,-16.687178
1.928e-008,-103.89912,-0.26929834
1.929e-008,-103.87273,16.040207
1.93e-008,-103.84251,32.239635
1.931e-008,-103.80822,48.329021
1.932e-008,-103.76951,64.309174
1.933e-008,-103.72594,80.182785
1.934e-008,-103.67704,95.95295
1.935e-008,-103.62231,111.62446
1.936e-008,-103.56113,127.20244
1.937e-008,-103.493,142.69359
1.938e-008,-103.41733,158.10551
1.939e-008,-103.33363,173.44594
1.94e-008,-103.24148,-171.27577
1.941e-008,-103.14056,-156.05023
1.942e-008,-103.03062,-140.86739
1.943e-008,-102.91152,-125.71754
1.944e-008,-102.78328,-110.59061
1.945e-008,-102.6461,-95.476837
1.946e-008,-102.50021,-80.366737
1.947e-008,-102.34604,-65.251785
1.948e-008,-102.18408,-50.123585
1.949e-008,-102.01495,-34.975212
1.95e-008,-101.83936,-19.800426
1.951e-008,-101.65807,-4.5939355
1.952e-008,-101.47178,10.648409
1.953e-008,-101.28136,25.929764
1.954e-008,-101.08762,41.252426
1.955e-008,-100.89127,56.61779
1.956e-008,-100.69321,72.026436
1.957e-008,-100.4941,87.477875
1.958e-008,-100.29471,102.97124
1.959e-008,-100.09563,118.50488
1.96e-008,-99.897491,134.07697
1.961e-008,-99.700912,149.68491
1.962e-008,-99.506416,165.32573
1.963e-008,-99.314468,-179.0036
1.964e-008,-99.125542,-163.30646
1.965e-008,-98.940033,-147.58627
1.966e-008,-98.758369,-131.84686
1.967e-008,-98.580849,-116.09174
1.968e-008,-98.407822,-100.32481
1.969e-008,-98.239571,-84.54969
1.97e-008,-98.076424,-68.770218
1.971e-008,-97.918556,-52.989975
1.972e-008,-97.766258,-37.21262
1.973e-008,-97.619751,-21.441628
1.974e-008,-97.479233,-5.6806388
1.975e-008,-97.344856,10.067265
1.976e-008,-97.21685,25.798668
1.977e-008,-97.095337,41.510548
1.978e-008,-96.980476,57.199638
1.979e-008,-96.872375,72.863182
1.98e-008,-96.771179,88.498283
1.981e-008,-96.676964,104.1023
1.982e-008,-96.589798,119.67244
1.983e-008,-96.50975,135.20634
1.984e-008,-96.436867,150.70137
1.985e-008,-96.371147,166.15536
1.986e-008,-96.312607,-178.43422
1.987e-008,-96.261192,-163.06921
1.988e-008,-96.216866,-147.75203
1.989e-008,-96.17955,-132.48453
1.99e-008,-96.149117,-117.2689
1.991e-008,-96.125443,-102.10667
1.992e-008,-96.108353,-86.999695
1.993e-008,-96.097649,-71.949677
1.994e-008,-96.093063,-56.958244
1.995e-008,-96.094353,-42.026497
1.996e-008,-96.101212,-27.155891
1.997e-008,-96.113297,-12.347572
1.998e-008,-96.130188,2.3978047
1.999e-008,-96.151527,17.079502
2e-008,-96.176796,31.697088
END

