!CSV A.01.01
!Keysight Technologies,N5227B,US58420762,A.13.80.08
!Date: Monday, November 20, 2023 16:35:09
!Source: Standard

BEGIN CH1_DATA
Time(s),S21(DB),S21(DEG)
1e-008,-120.06922,42.562386
1.001e-008,-120.51146,61.266727
1.002e-008,-120.94483,80.406487
1.003e-008,-121.35622,99.993073
1.004e-008,-121.73073,120.01928
1.005e-008,-122.05161,140.44574
1.006e-008,-122.30322,161.18867
1.007e-008,-122.47282,-177.86188
1.008e-008,-122.55423,-156.8481
1.009e-008,-122.54652,-135.91635
1.01e-008,-122.45767,-115.21243
1.011e-008,-122.29992,-94.844299
1.012e-008,-122.08905,-74.891869
1.013e-008,-121.84157,-55.39378
1.014e-008,-121.57311,-36.363228
1.015e-008,-121.29624,-17.783283
1.016e-008,-121.02211,0.37046713
1.017e-008,-120.75845,18.134136
1.018e-008,-120.51167,35.538235
1.019e-008,-120.28593,52.621132
1.02e-008,-120.08417,69.415909
1.021e-008,-119.90813,85.948502
1.022e-008,-119.75991,102.24683
1.023e-008,-119.6392,118.33044
1.024e-008,-119.54672,134.22302
1.025e-008,-119.48241,149.93784
1.026e-008,-119.44682,165.49132
1.027e-008,-119.43929,-179.10817
1.028e-008,-119.45925,-163.84776
1.029e-008,-119.50726,-148.71864
1.03e-008,-119.58271,-133.71283
1.031e-008,-119.68576,-118.82536
1.032e-008,-119.81585,-104.05228
1.033e-008,-119.97353,-89.386559
1.034e-008,-120.15891,-74.825005
1.035e-008,-120.3724,-60.365288
1.036e-008,-120.61427,-46.007381
1.037e-008,-120.88603,-31.74522
1.038e-008,-121.18774,-17.581667
1.039e-008,-121.52165,-3.5158892
1.04e-008,-121.88906,10.44879
1.041e-008,-122.29269,24.310572
1.042e-008,-122.73472,38.063992
1.043e-008,-123.21945,51.700798
1.044e-008,-123.75055,65.201302
1.045e-008,-124.33378,78.555389
1.046e-008,-124.97553,91.73439
1.047e-008,-125.68415,104.69623
1.048e-008,-126.47002,117.3865
1.049e-008,-127.34596,129.72577
1.05e-008,-128.3271,141.58595
1.051e-008,-129.43246,152.76855
1.052e-008,-130.68266,162.96582
1.053e-008,-132.09435,171.68643
1.054e-008,-133.65939,178.08742
1.055e-008,-135.29231,-179.08032
1.056e-008,-136.69601,178.79822
1.057e-008,-137.29758,172.27438
1.058e-008,-136.72568,165.75543
1.059e-008,-135.34958,163.68301
1.06e-008,-133.74139,166.61835
1.061e-008,-132.20334,173.21162
1.062e-008,-130.8255,-177.82764
1.063e-008,-129.61646,-167.32076
1.064e-008,-128.56003,-155.77844
1.065e-008,-127.63789,-143.51997
1.066e-008,-126.83286,-130.7365
1.067e-008,-126.12997,-117.56966
1.068e-008,-125.51736,-104.1013
1.069e-008,-124.98742,-90.394478
1.07e-008,-124.53149,-76.497673
1.071e-008,-124.14536,-62.441277
1.072e-008,-123.82372,-48.250153
1.073e-008,-123.56509,-33.945412
1.074e-008,-123.36614,-19.541338
1.075e-008,-123.22662,-5.0538077
1.076e-008,-123.14544,9.5110178
1.077e-008,-123.12361,24.141788
1.078e-008,-123.16136,38.833019
1.079e-008,-123.2618,53.576717
1.08e-008,-123.42716,68.368645
1.081e-008,-123.66181,83.202026
1.082e-008,-123.97128,98.07267
1.083e-008,-124.36315,112.97658
1.084e-008,-124.84689,127.90723
1.085e-008,-125.43597,142.86484
1.086e-008,-126.14713,157.83815
1.087e-008,-127.00755,172.82484
1.088e-008,-128.05229,-172.18718
1.089e-008,-129.33769,-157.21236
1.09e-008,-130.95506,-142.28215
1.091e-008,-133.07054,-127.42707
1.092e-008,-136.02483,-112.81593
1.093e-008,-140.7639,-98.997818
1.094e-008,-152.59715,-93.065796
1.095e-008,-146.46091,120.58224
1.096e-008,-138.51405,132.1331
1.097e-008,-134.39966,146.39806
1.098e-008,-131.6093,161.1761
1.099e-008,-129.50948,176.13766
1.1e-008,-127.83519,-168.82191
1.101e-008,-126.45457,-153.73428
1.102e-008,-125.29061,-138.62346
1.103e-008,-124.29593,-123.50102
1.104e-008,-123.43601,-108.37639
1.105e-008,-122.69004,-93.250938
1.106e-008,-122.04022,-78.13105
1.107e-008,-121.47443,-63.025223
1.108e-008,-120.9832,-47.93457
1.109e-008,-120.55937,-32.86533
1.11e-008,-120.19618,-17.819437
1.111e-008,-119.88952,-2.8050125
1.112e-008,-119.63519,12.181878
1.113e-008,-119.43044,27.128271
1.114e-008,-119.27161,42.031864
1.115e-008,-119.15707,56.886425
1.116e-008,-119.08459,71.686554
1.117e-008,-119.05304,86.424789
1.118e-008,-119.06019,101.09422
1.119e-008,-119.10487,115.68599
1.12e-008,-119.18562,130.19264
1.121e-008,-119.3007,144.60789
1.122e-008,-119.44897,158.91237
1.123e-008,-119.62885,173.10753
1.124e-008,-119.83821,-172.82671
1.125e-008,-120.07462,-158.89612
1.126e-008,-120.33618,-145.10915
1.127e-008,-120.61952,-131.47684
1.128e-008,-120.92076,-118.00455
1.129e-008,-121.23636,-104.69677
1.13e-008,-121.56158,-91.54615
1.131e-008,-121.89087,-78.545593
1.132e-008,-122.21873,-65.678391
1.133e-008,-122.54058,-52.913082
1.134e-008,-122.85201,-40.217197
1.135e-008,-123.14754,-27.531076
1.136e-008,-123.42474,-14.799338
1.137e-008,-123.68171,-1.9550496
1.138e-008,-123.91907,11.080224
1.139e-008,-124.13957,24.387156
1.14e-008,-124.34583,38.038013
1.141e-008,-124.54153,52.115356
1.142e-008,-124.7312,66.684639
1.143e-008,-124.91869,81.82811
1.144e-008,-125.10414,97.612938
1.145e-008,-125.28589,114.1048
1.146e-008,-125.45837,131.37154
1.147e-008,-125.611,149.47162
1.148e-008,-125.72481,168.42369
1.149e-008,-125.77734,-171.76622
1.15e-008,-125.7421,-151.18022
1.151e-008,-125.59162,-129.97978
1.152e-008,-125.30895,-108.38271
1.153e-008,-124.88815,-86.671539
1.154e-008,-124.34007,-65.114883
1.155e-008,-123.68673,-43.924591
1.156e-008,-122.95823,-23.242054
1.157e-008,-122.18359,-3.114342
1.158e-008,-121.3886,16.452469
1.159e-008,-120.5933,35.500706
1.16e-008,-119.8121,54.088158
1.161e-008,-119.05629,72.275543
1.162e-008,-118.33107,90.123383
1.163e-008,-117.64084,107.68106
1.164e-008,-116.98813,124.99708
1.165e-008,-116.3736,142.11017
1.166e-008,-115.79764,159.05296
1.167e-008,-115.25957,175.85362
1.168e-008,-114.75939,-167.46605
1.169e-008,-114.29602,-150.88654
1.17e-008,-113.86877,-134.39078
1.171e-008,-113.47672,-117.96741
1.172e-008,-113.1192,-101.60349
1.173e-008,-112.79536,-85.291321
1.174e-008,-112.50443,-69.021217
1.175e-008,-112.2459,-52.786194
1.176e-008,-112.01922,-36.580494
1.177e-008,-111.82384,-20.398996
1.178e-008,-111.65929,-4.2362013
1.179e-008,-111.52553,11.911071
1.18e-008,-111.42207,28.04887
1.181e-008,-111.34898,44.179359
1.182e-008,-111.30608,60.30687
1.183e-008,-111.29346,76.434212
1.184e-008,-111.31113,92.566841
1.185e-008,-111.35955,108.70676
1.186e-008,-111.43873,124.85955
1.187e-008,-111.54934,141.02859
1.188e-008,-111.69171,157.21904
1.189e-008,-111.86658,173.43697
1.19e-008,-112.07468,-170.31285
1.191e-008,-112.31686,-154.02188
1.192e-008,-112.59414,-137.68234
1.193e-008,-112.90771,-121.28334
1.194e-008,-113.25876,-104.81483
1.195e-008,-113.64902,-88.260414
1.196e-008,-114.07975,-71.604874
1.197e-008,-114.55273,-54.82346
1.198e-008,-115.07014,-37.892723
1.199e-008,-115.63342,-20.77598
1.2e-008,-116.24432,-3.4356201
1.201e-008,-116.90414,14.184939
1.202e-008,-117.61358,32.147572
1.203e-008,-118.37123,50.538292
1.204e-008,-119.17326,69.457123
1.205e-008,-120.01103,89.030502
1.206e-008,-120.86901,109.39758
1.207e-008,-121.71941,130.69945
1.208e-008,-122.52108,153.04266
1.209e-008,-123.2169,176.43211
1.21e-008,-123.74368,-159.30571
1.211e-008,-124.04768,-134.57475
1.212e-008,-124.10948,-109.92753
1.213e-008,-123.95225,-85.921585
1.214e-008,-123.63033,-62.926792
1.215e-008,-123.20765,-41.110737
1.216e-008,-122.73888,-20.448584
1.217e-008,-122.2636,-0.83394891
1.218e-008,-121.80717,17.874424
1.219e-008,-121.38396,35.814594
1.22e-008,-121.00129,53.104813
1.221e-008,-120.66188,69.845444
1.222e-008,-120.36496,86.115562
1.223e-008,-120.10973,101.97816
1.224e-008,-119.89277,117.48489
1.225e-008,-119.71111,132.67809
1.226e-008,-119.56111,147.58882
1.227e-008,-119.43961,162.24951
1.228e-008,-119.34276,176.68527
1.229e-008,-119.26758,-169.07758
1.23e-008,-119.21084,-155.01796
1.231e-008,-119.16957,-141.10992
1.232e-008,-119.14129,-127.33097
1.233e-008,-119.12445,-113.65586
1.234e-008,-119.11668,-100.06038
1.235e-008,-119.11796,-86.516289
1.236e-008,-119.12749,-73.001328
1.237e-008,-119.14595,-59.488121
1.238e-008,-119.17397,-45.952908
1.239e-008,-119.2134,-32.370975
1.24e-008,-119.26609,-18.722883
1.241e-008,-119.33503,-4.9864397
1.242e-008,-119.42329,8.8539972
1.243e-008,-119.53448,22.820042
1.244e-008,-119.67224,36.922962
1.245e-008,-119.84117,51.184341
1.246e-008,-120.04555,65.615921
1.247e-008,-120.29137,80.242439
1.248e-008,-120.58347,95.077736
1.249e-008,-120.9286,110.15578
1.25e-008,-121.33366,125.51144
1.251e-008,-121.80688,141.19273
1.252e-008,-122.35708,157.26756
1.253e-008,-122.99391,173.8315
1.254e-008,-123.72955,-168.9753
1.255e-008,-124.5732,-150.94476
1.256e-008,-125.53151,-131.77435
1.257e-008,-126.59669,-111.00087
1.258e-008,-127.72762,-87.993523
1.259e-008,-128.80333,-61.992599
1.26e-008,-129.58186,-32.644363
1.261e-008,-129.74524,-0.96909618
1.262e-008,-129.16206,30.404682
1.263e-008,-128.03355,59.097897
1.264e-008,-126.67542,84.500359
1.265e-008,-125.30164,107.14215
1.266e-008,-124.00818,127.77206
1.267e-008,-122.82836,146.98239
1.268e-008,-121.76429,165.19943
1.269e-008,-120.80943,-177.30251
1.27e-008,-119.95351,-160.3304
1.271e-008,-119.18697,-143.7585
1.272e-008,-118.50033,-127.49588
1.273e-008,-117.88614,-111.48078
1.274e-008,-117.33708,-95.668808
1.275e-008,-116.84851,-80.027336
1.276e-008,-116.41451,-64.532074
1.277e-008,-116.03192,-49.167843
1.278e-008,-115.69659,-33.921665
1.279e-008,-115.40588,-18.785345
1.28e-008,-115.15682,-3.7527809
1.281e-008,-114.94733,11.179838
1.282e-008,-114.77516,26.012136
1.283e-008,-114.63845,40.747734
1.284e-008,-114.53536,55.382477
1.285e-008,-114.46413,69.917351
1.286e-008,-114.42335,84.347748
1.287e-008,-114.41137,98.672195
1.288e-008,-114.42641,112.88572
1.289e-008,-114.46693,126.98595
1.29e-008,-114.53131,140.96814
1.291e-008,-114.61799,154.83081
1.292e-008,-114.72456,168.56796
1.293e-008,-114.84949,-177.81927
1.294e-008,-114.99057,-164.33536
1.295e-008,-115.14552,-150.97617
1.296e-008,-115.31221,-137.74101
1.297e-008,-115.48855,-124.62354
1.298e-008,-115.67227,-111.61917
1.299e-008,-115.86157,-98.715065
1.3e-008,-116.0545,-85.899872
1.301e-008,-116.24982,-73.156395
1.302e-008,-116.44675,-60.468456
1.303e-008,-116.64501,-47.812546
1.304e-008,-116.84471,-35.171638
1.305e-008,-117.04728,-22.520308
1.306e-008,-117.25465,-9.8395786
1.307e-008,-117.46956,2.8929682
1.308e-008,-117.69495,15.693051
1.309e-008,-117.93542,28.579662
1.31e-008,-118.19569,41.563274
1.311e-008,-118.481,54.655624
1.312e-008,-118.79763,67.864296
1.313e-008,-119.15279,81.195953
1.314e-008,-119.55424,94.651375
1.315e-008,-120.01103,108.23174
1.316e-008,-120.53419,121.94005
1.317e-008,-121.13618,135.77213
1.318e-008,-121.83477,149.72771
1.319e-008,-122.65038,163.80782
1.32e-008,-123.61213,178.0134
1.321e-008,-124.76229,-167.64975
1.322e-008,-126.1645,-153.16489
1.323e-008,-127.92359,-138.4911
1.324e-008,-130.23158,-123.55217
1.325e-008,-133.508,-108.06502
1.326e-008,-139.017,-90.76796
1.327e-008,-156.44061,-33.793251
1.328e-008,-140.61014,105.99403
1.329e-008,-134.15398,124.38675
1.33e-008,-130.48877,140.34073
1.331e-008,-127.93908,155.75693
1.332e-008,-126.0008,170.99275
1.333e-008,-124.45448,-173.84465
1.334e-008,-123.18437,-158.70949
1.335e-008,-122.12274,-143.58383
1.336e-008,-121.22668,-128.45435
1.337e-008,-120.46671,-113.3178
1.338e-008,-119.82271,-98.172432
1.339e-008,-119.28024,-83.021652
1.34e-008,-118.82867,-67.85907
1.341e-008,-118.45998,-52.692448
1.342e-008,-118.16853,-37.520226
1.343e-008,-117.9502,-22.346567
1.344e-008,-117.80242,-7.1735659
1.345e-008,-117.72356,7.9938145
1.346e-008,-117.71301,23.153833
1.347e-008,-117.77105,38.299652
1.348e-008,-117.89967,53.427513
1.349e-008,-118.10117,68.530884
1.35e-008,-118.37958,83.598732
1.351e-008,-118.74036,98.622383
1.352e-008,-119.191,113.59048
1.353e-008,-119.74139,128.48035
1.354e-008,-120.40523,143.26814
1.355e-008,-121.20152,157.91353
1.356e-008,-122.15472,172.36127
1.357e-008,-123.30453,-173.48486
1.358e-008,-124.70671,-159.78838
1.359e-008,-126.45216,-146.86743
1.36e-008,-128.69643,-135.414
1.361e-008,-131.71931,-127.26195
1.362e-008,-135.95915,-128.72894
1.363e-008,-139.8459,-160.69673
1.364e-008,-136.46938,163.69717
1.365e-008,-132.13603,160.38406
1.366e-008,-129.05092,167.83789
1.367e-008,-126.78201,178.84009
1.368e-008,-125.03408,-168.67125
1.369e-008,-123.64336,-155.43948
1.37e-008,-122.51381,-141.82373
1.371e-008,-121.58673,-128.00006
1.372e-008,-120.82417,-114.0826
1.373e-008,-120.19759,-100.14473
1.374e-008,-119.68909,-86.240959
1.375e-008,-119.28374,-72.418312
1.376e-008,-118.97114,-58.722622
1.377e-008,-118.74206,-45.193455
1.378e-008,-118.58926,-31.875988
1.379e-008,-118.50527,-18.819574
1.38e-008,-118.48358,-6.0792789
1.381e-008,-118.51561,6.2900996
1.382e-008,-118.59241,18.219419
1.383e-008,-118.69994,29.645931
1.384e-008,-118.82253,40.509819
1.385e-008,-118.93932,50.774078
1.386e-008,-119.02428,60.428452
1.387e-008,-119.0486,69.523338
1.388e-008,-118.98569,78.176117
1.389e-008,-118.81425,86.576996
1.39e-008,-118.52486,94.962173
1.391e-008,-118.12285,103.57106
1.392e-008,-117.62493,112.60393
1.393e-008,-117.05652,122.20078
1.394e-008,-116.44406,132.41928
1.395e-008,-115.81165,143.26752
1.396e-008,-115.17989,154.70956
1.397e-008,-114.56342,166.68991
1.398e-008,-113.97286,179.14943
1.399e-008,-113.41561,-167.97401
1.4e-008,-112.89635,-154.73653
1.401e-008,-112.41795,-141.18681
1.402e-008,-111.98211,-127.36832
1.403e-008,-111.58975,-113.31656
1.404e-008,-111.24115,-99.062958
1.405e-008,-110.93656,-84.631447
1.406e-008,-110.6759,-70.044701
1.407e-008,-110.45907,-55.318581
1.408e-008,-110.28624,-40.468067
1.409e-008,-110.15749,-25.503963
1.41e-008,-110.07317,-10.436288
1.411e-008,-110.03375,4.7297969
1.412e-008,-110.04002,19.988953
1.413e-008,-110.09293,35.337772
1.414e-008,-110.19404,50.777489
1.415e-008,-110.3449,66.307648
1.416e-008,-110.54776,81.934326
1.417e-008,-110.80534,97.663742
1.418e-008,-111.12106,113.507
1.419e-008,-111.49885,129.48018
1.42e-008,-111.94404,145.60533
1.421e-008,-112.46251,161.91415
1.422e-008,-113.06213,178.44981
1.423e-008,-113.75211,-164.72516
1.424e-008,-114.54377,-147.52051
1.425e-008,-115.45081,-129.80289
1.426e-008,-116.48865,-111.3679
1.427e-008,-117.67222,-91.903198
1.428e-008,-119.00914,-70.906219
1.429e-008,-120.47726,-47.600571
1.43e-008,-121.97126,-20.891403
1.431e-008,-123.20306,10.167787
1.432e-008,-123.69885,44.748875
1.433e-008,-123.19844,79.101448
1.434e-008,-122.00541,109.6778
1.435e-008,-120.58691,135.89954
1.436e-008,-119.20957,158.77878
1.437e-008,-117.96835,179.38222
1.438e-008,-116.88047,-161.54068
1.439e-008,-115.93713,-143.51457
1.44e-008,-115.12289,-126.23803
1.441e-008,-114.42257,-109.51975
1.442e-008,-113.82244,-93.233849
1.443e-008,-113.31117,-77.29496
1.444e-008,-112.87909,-61.648872
1.445e-008,-112.51835,-46.255131
1.446e-008,-112.22239,-31.090055
1.447e-008,-111.98532,-16.134094
1.448e-008,-111.8023,-1.378785
1.449e-008,-111.66899,13.181874
1.45e-008,-111.58104,27.549685
1.451e-008,-111.53506,41.724884
1.452e-008,-111.52686,55.705379
1.453e-008,-111.55307,69.487953
1.454e-008,-111.6096,83.067757
1.455e-008,-111.6927,96.444962
1.456e-008,-111.79813,109.61755
1.457e-008,-111.92166,122.58704
1.458e-008,-112.05871,135.35954
1.459e-008,-112.20535,147.94673
1.46e-008,-112.35683,160.362
1.461e-008,-112.50963,172.62939
1.462e-008,-112.66073,-175.22517
1.463e-008,-112.80797,-163.16617
1.464e-008,-112.95041,-151.15874
1.465e-008,-113.08873,-139.16216
1.466e-008,-113.22476,-127.13898
1.467e-008,-113.36251,-115.05019
1.468e-008,-113.50652,-102.86372
1.469e-008,-113.66337,-90.552559
1.47e-008,-113.84007,-78.094582
1.471e-008,-114.0455,-65.473419
1.472e-008,-114.28859,-52.680729
1.473e-008,-114.58006,-39.710335
1.474e-008,-114.93124,-26.562342
1.475e-008,-115.35634,-13.236314
1.476e-008,-115.87121,0.26140141
1.477e-008,-116.49647,13.932096
1.478e-008,-117.25913,27.768076
1.479e-008,-118.19645,41.77874
1.48e-008,-119.36321,55.97303
1.481e-008,-120.84729,70.385544
1.482e-008,-122.80161,85.098137
1.483e-008,-125.53981,100.34478
1.484e-008,-129.87221,117.036
1.485e-008,-139.55261,143.90532
1.486e-008,-137.51974,-54.418678
1.487e-008,-128.70308,-30.613823
1.488e-008,-124.30102,-13.951668
1.489e-008,-121.34775,1.5919356
1.49e-008,-119.13109,16.768026
1.491e-008,-117.36717,31.78952
1.492e-008,-115.91544,46.733082
1.493e-008,-114.69511,61.631565
1.494e-008,-113.65623,76.50074
1.495e-008,-112.76532,91.344467
1.496e-008,-111.99969,106.16359
1.497e-008,-111.34286,120.95525
1.498e-008,-110.78301,135.71542
1.499e-008,-110.311,150.43652
1.5e-008,-109.92058,165.11095
1.501e-008,-109.60682,179.72806
1.502e-008,-109.36639,-165.72372
1.503e-008,-109.19644,-151.25996
1.504e-008,-109.09599,-136.89774
1.505e-008,-109.06403,-122.65841
1.506e-008,-109.10052,-108.56842
1.507e-008,-109.20576,-94.660141
1.508e-008,-109.38062,-80.973961
1.509e-008,-109.62608,-67.560501
1.51e-008,-109.94268,-54.483624
1.511e-008,-110.33046,-41.826172
1.512e-008,-110.78761,-29.690037
1.513e-008,-111.3088,-18.205116
1.514e-008,-111.88264,-7.5262847
1.515e-008,-112.48747,2.169749
1.516e-008,-113.08701,10.713295
1.517e-008,-113.62513,18.000921
1.518e-008,-114.02935,24.094181
1.519e-008,-114.22557,29.321472
1.52e-008,-114.16904,34.272251
1.521e-008,-113.86694,39.634289
1.522e-008,-113.37562,45.950729
1.523e-008,-112.77328,53.483078
1.524e-008,-112.13209,62.246124
1.525e-008,-111.50647,72.112061
1.526e-008,-110.9323,82.907516
1.527e-008,-110.43213,94.456825
1.528e-008,-110.02013,106.60698
1.529e-008,-109.70567,119.23362
1.53e-008,-109.49691,132.23456
1.531e-008,-109.40178,145.52895
1.532e-008,-109.43024,159.04834
1.533e-008,-109.59556,172.73566
1.534e-008,-109.91657,-173.46066
1.535e-008,-110.42078,-159.59108
1.536e-008,-111.14978,-145.71532
1.537e-008,-112.16959,-131.9124
1.538e-008,-113.59286,-118.31718
1.539e-008,-115.63317,-105.22011
1.54e-008,-118.77427,-93.474945
1.541e-008,-124.52618,-87.425079
1.542e-008,-134.58777,-166.64771
1.543e-008,-122.1622,151.41574
1.544e-008,-116.35986,159.46817
1.545e-008,-112.68965,171.55157
1.546e-008,-109.98204,-175.29346
1.547e-008,-107.82993,-161.73656
1.548e-008,-106.04407,-148.01875
1.549e-008,-104.52135,-134.25668
1.55e-008,-103.19884,-120.51705
1.551e-008,-102.03517,-106.84682
1.552e-008,-101.00142,-93.282715
1.553e-008,-100.0761,-79.857567
1.554e-008,-99.242455,-66.602852
1.555e-008,-98.486565,-53.54837
1.556e-008,-97.796181,-40.724815
1.557e-008,-97.159851,-28.16116
1.558e-008,-96.566093,-15.884987
1.559e-008,-96.003181,-3.9193406
1.56e-008,-95.458511,7.7202225
1.561e-008,-94.918739,19.029676
1.562e-008,-94.369919,30.02128
1.563e-008,-93.798233,40.727516
1.564e-008,-93.19091,51.20388
1.565e-008,-92.537605,61.527336
1.566e-008,-91.831566,71.791367
1.567e-008,-91.070442,82.096893
1.568e-008,-90.256454,92.541481
1.569e-008,-89.39566,103.2093
1.57e-008,-88.496841,114.16418
1.571e-008,-87.570152,125.44756
1.572e-008,-86.625847,137.07959
1.573e-008,-85.673416,149.06279
1.574e-008,-84.721039,161.38675
1.575e-008,-83.77549,174.03255
1.576e-008,-82.842033,-173.02339
1.577e-008,-81.92469,-159.80678
1.578e-008,-81.026337,-146.34348
1.579e-008,-80.14901,-132.65823
1.58e-008,-79.293999,-118.77411
1.581e-008,-78.46209,-104.71223
1.582e-008,-77.653641,-90.49157
1.583e-008,-76.868744,-76.129051
1.584e-008,-76.107231,-61.639774
1.585e-008,-75.36882,-47.036976
1.586e-008,-74.653099,-32.332451
1.587e-008,-73.959595,-17.536535
1.588e-008,-73.287796,-2.6583853
1.589e-008,-72.637154,12.293939
1.59e-008,-72.007126,27.313299
1.591e-008,-71.397163,42.393364
1.592e-008,-70.806725,57.528511
1.593e-008,-70.235291,72.713768
1.594e-008,-69.68235,87.944679
1.595e-008,-69.147408,103.21725
1.596e-008,-68.630005,118.52795
1.597e-008,-68.129684,133.87355
1.598e-008,-67.646027,149.25119
1.599e-008,-67.178627,164.65828
1.6e-008,-66.727097,-179.90756
1.601e-008,-66.291077,-164.44846
1.602e-008,-65.870209,-148.96634
1.603e-008,-65.464188,-133.46298
1.604e-008,-65.072685,-117.93998
1.605e-008,-64.695419,-102.39884
1.606e-008,-64.332123,-86.840897
1.607e-008,-63.982517,-71.26741
1.608e-008,-63.64637,-55.679531
1.609e-008,-63.323448,-40.078335
1.61e-008,-63.013531,-24.464798
1.611e-008,-62.716419,-8.8398514
1.612e-008,-62.431915,6.7956543
1.613e-008,-62.15984,22.440908
1.614e-008,-61.900021,38.095173
1.615e-008,-61.652302,53.757732
1.616e-008,-61.416531,69.427917
1.617e-008,-61.19257,85.10511
1.618e-008,-60.980286,100.7887
1.619e-008,-60.77956,116.47814
1.62e-008,-60.590275,132.17287
1.621e-008,-60.412327,147.87238
1.622e-008,-60.245621,163.57617
1.623e-008,-60.090069,179.28377
1.624e-008,-59.94558,-165.00531
1.625e-008,-59.812092,-149.29147
1.626e-008,-59.689526,-133.57521
1.627e-008,-59.577827,-117.85691
1.628e-008,-59.47694,-102.137
1.629e-008,-59.386818,-86.415924
1.63e-008,-59.307415,-70.694054
1.631e-008,-59.238705,-54.971825
1.632e-008,-59.180653,-39.24963
1.633e-008,-59.133236,-23.527878
1.634e-008,-59.096443,-7.8069763
1.635e-008,-59.070263,7.912652
1.636e-008,-59.054691,23.630608
1.637e-008,-59.049728,39.346436
1.638e-008,-59.055386,55.059719
1.639e-008,-59.071674,70.770012
1.64e-008,-59.098618,86.476852
1.641e-008,-59.136246,102.17976
1.642e-008,-59.184586,117.87825
1.643e-008,-59.243683,133.57179
1.644e-008,-59.313583,149.25987
1.645e-008,-59.394337,164.94194
1.646e-008,-59.486004,-179.38264
1.647e-008,-59.588657,-163.71443
1.648e-008,-59.702366,-148.05412
1.649e-008,-59.827209,-132.40237
1.65e-008,-59.963284,-116.75996
1.651e-008,-60.110676,-101.12764
1.652e-008,-60.269497,-85.506241
1.653e-008,-60.439857,-69.896683
1.654e-008,-60.62188,-54.299904
1.655e-008,-60.815689,-38.716953
1.656e-008,-61.021423,-23.148928
1.657e-008,-61.239231,-7.5970359
1.658e-008,-61.469269,7.9374304
1.659e-008,-61.711697,23.453058
1.66e-008,-61.966694,38.948315
1.661e-008,-62.23444,54.421535
1.662e-008,-62.515129,69.870895
1.663e-008,-62.80896,85.294411
1.664e-008,-63.116142,100.6899
1.665e-008,-63.436897,116.05497
1.666e-008,-63.771446,131.38699
1.667e-008,-64.120026,146.68307
1.668e-008,-64.482857,161.94
1.669e-008,-64.860191,177.15427
1.67e-008,-65.252251,-167.67807
1.671e-008,-65.659279,-152.56133
1.672e-008,-66.08149,-137.50031
1.673e-008,-66.519081,-122.50034
1.674e-008,-66.972244,-107.56739
1.675e-008,-67.441109,-92.708023
1.676e-008,-67.925766,-77.929588
1.677e-008,-68.426239,-63.240181
1.678e-008,-68.942467,-48.648849
1.679e-008,-69.474243,-34.165504
1.68e-008,-70.021233,-19.801115
1.681e-008,-70.582886,-5.5676417
1.682e-008,-71.158409,8.5219584
1.683e-008,-71.746689,22.453794
1.684e-008,-72.346222,36.213253
1.685e-008,-72.95504,49.785328
1.686e-008,-73.57061,63.155079
1.687e-008,-74.189766,76.308495
1.688e-008,-74.808624,89.233452
1.689e-008,-75.422546,101.92117
1.69e-008,-76.026169,114.36786
1.691e-008,-76.613518,126.57667
1.692e-008,-77.178246,138.55954
1.693e-008,-77.713951,150.33882
1.694e-008,-78.214729,161.948
1.695e-008,-78.675659,173.43135
1.696e-008,-79.093399,-175.15808
1.697e-008,-79.466576,-163.76173
1.698e-008,-79.796005,-152.31985
1.699e-008,-80.084641,-140.77608
1.7e-008,-80.337219,-129.08128
1.701e-008,-80.559814,-117.19637
1.702e-008,-80.759247,-105.09328
1.703e-008,-80.942589,-92.754982
1.704e-008,-81.116684,-80.174141
1.705e-008,-81.287926,-67.351387
1.706e-008,-81.462059,-54.293343
1.707e-008,-81.644127,-41.010906
1.708e-008,-81.83847,-27.517527
1.709e-008,-82.048836,-13.828253
1.71e-008,-82.278412,0.041415025
1.711e-008,-82.529976,14.076051
1.712e-008,-82.805962,28.26059
1.713e-008,-83.108574,42.580753
1.714e-008,-83.43988,57.022968
1.715e-008,-83.801865,71.574478
1.716e-008,-84.196564,86.223213
1.717e-008,-84.626083,100.95763
1.718e-008,-85.092743,115.76682
1.719e-008,-85.599113,130.63976
1.72e-008,-86.148155,145.5656
1.721e-008,-86.743332,160.533
1.722e-008,-87.388771,175.52974
1.723e-008,-88.089455,-169.4579
1.724e-008,-88.851501,-154.44604
1.725e-008,-89.682564,-139.45445
1.726e-008,-90.592323,-124.50887
1.727e-008,-91.593323,-109.64366
1.728e-008,-92.702072,-94.907951
1.729e-008,-93.940941,-80.374771
1.73e-008,-95.341026,-66.159355
1.731e-008,-96.946976,-52.456139
1.732e-008,-98.824989,-39.61961
1.733e-008,-101.07509,-28.364447
1.734e-008,-103.83994,-20.320749
1.735e-008,-107.20874,-19.675457
1.736e-008,-110.2635,-35.321754
1.737e-008,-109.70677,-60.677326
1.738e-008,-106.75277,-69.182823
1.739e-008,-104.0906,-64.885712
1.74e-008,-102.02747,-55.128876
1.741e-008,-100.42126,-42.851986
1.742e-008,-99.143692,-29.240816
1.743e-008,-98.108337,-14.840476
1.744e-008,-97.257683,0.06909474
1.745e-008,-96.552315,15.330158
1.746e-008,-95.96431,30.84771
1.747e-008,-95.473267,46.560806
1.748e-008,-95.06382,62.429222
1.749e-008,-94.724182,78.424629
1.75e-008,-94.44503,94.526894
1.751e-008,-94.218887,110.72107
1.752e-008,-94.039719,126.99574
1.753e-008,-93.902443,143.34218
1.754e-008,-93.802902,159.7529
1.755e-008,-93.737488,176.22226
1.756e-008,-93.703224,-167.2549
1.757e-008,-93.697502,-150.68295
1.758e-008,-93.718102,-134.0656
1.759e-008,-93.763039,-117.40662
1.76e-008,-93.830711,-100.70901
1.761e-008,-93.919662,-83.975891
1.762e-008,-94.028702,-67.210182
1.763e-008,-94.156761,-50.414551
1.764e-008,-94.303024,-33.591286
1.765e-008,-94.466827,-16.742643
1.766e-008,-94.647636,0.12925504
1.767e-008,-94.845093,17.022882
1.768e-008,-95.059013,33.937023
1.769e-008,-95.28936,50.870796
1.77e-008,-95.536201,67.824005
1.771e-008,-95.799774,84.796776
1.772e-008,-96.080528,101.79104
1.773e-008,-96.37896,118.80874
1.774e-008,-96.695816,135.85333
1.775e-008,-97.03183,152.92947
1.776e-008,-97.388107,170.04436
1.777e-008,-97.765709,-172.79369
1.778e-008,-98.165924,-155.57333
1.779e-008,-98.590096,-138.28081
1.78e-008,-99.039734,-120.8978
1.781e-008,-99.516365,-103.4019
1.782e-008,-100.02147,-85.765007
1.783e-008,-100.55637,-67.952194
1.784e-008,-101.12213,-49.919144
1.785e-008,-101.71895,-31.611488
1.786e-008,-102.34592,-12.961999
1.787e-008,-102.99993,6.1113811
1.788e-008,-103.67473,25.706379
1.789e-008,-104.35862,45.933533
1.79e-008,-105.03259,66.90786
1.791e-008,-105.66743,88.726135
1.792e-008,-106.22298,111.4318
1.793e-008,-106.65028,134.95877
1.794e-008,-106.9013,159.0885
1.795e-008,-106.94309,-176.55287
1.796e-008,-106.77164,-152.41344
1.797e-008,-106.41295,-128.89632
1.798e-008,-105.91277,-106.26361
1.799e-008,-105.32087,-84.618286
1.8e-008,-104.68021,-63.938923
1.801e-008,-104.02283,-44.137619
1.802e-008,-103.37025,-25.100214
1.803e-008,-102.73573,-6.7131
1.804e-008,-102.12681,11.12799
1.805e-008,-101.54723,28.510065
1.806e-008,-100.99843,45.50703
1.807e-008,-100.48035,62.177692
1.808e-008,-99.992111,78.572426
1.809e-008,-99.532455,94.73056
1.81e-008,-99.099831,110.68567
1.811e-008,-98.692734,126.46446
1.812e-008,-98.30957,142.09009
1.813e-008,-97.948837,157.58156
1.814e-008,-97.609154,172.95537
1.815e-008,-97.289215,-171.77507
1.816e-008,-96.987816,-156.59721
1.817e-008,-96.703857,-141.50107
1.818e-008,-96.436386,-126.47701
1.819e-008,-96.184433,-111.51727
1.82e-008,-95.94725,-96.614212
1.821e-008,-95.724068,-81.761398
1.822e-008,-95.514252,-66.952866
1.823e-008,-95.31723,-52.183212
1.824e-008,-95.132507,-37.447208
1.825e-008,-94.959595,-22.740435
1.826e-008,-94.798157,-8.0583916
1.827e-008,-94.647842,6.6026506
1.828e-008,-94.5084,21.246536
1.829e-008,-94.379578,35.876831
1.83e-008,-94.26123,50.496727
1.831e-008,-94.153191,65.109222
1.832e-008,-94.055397,79.717163
1.833e-008,-93.967781,94.323242
1.834e-008,-93.890366,108.93002
1.835e-008,-93.823128,123.5396
1.836e-008,-93.766159,138.15437
1.837e-008,-93.719536,152.7762
1.838e-008,-93.683395,167.40678
1.839e-008,-93.65786,-177.952
1.84e-008,-93.643135,-163.29877
1.841e-008,-93.639397,-148.63203
1.842e-008,-93.646919,-133.95059
1.843e-008,-93.665916,-119.25357
1.844e-008,-93.696678,-104.53986
1.845e-008,-93.739525,-89.80854
1.846e-008,-93.794777,-75.059204
1.847e-008,-93.86277,-60.291126
1.848e-008,-93.943916,-45.504044
1.849e-008,-94.038582,-30.697617
1.85e-008,-94.14724,-15.871852
1.851e-008,-94.270309,-1.0265768
1.852e-008,-94.40831,13.837914
1.853e-008,-94.561768,28.7213
1.854e-008,-94.731232,43.623074
1.855e-008,-94.91729,58.542713
1.856e-008,-95.120621,73.47924
1.857e-008,-95.341896,88.431839
1.858e-008,-95.581917,103.39887
1.859e-008,-95.841431,118.37914
1.86e-008,-96.121384,133.37071
1.861e-008,-96.422752,148.37157
1.862e-008,-96.74659,163.37877
1.863e-008,-97.094101,178.38956
1.864e-008,-97.466591,-166.59987
1.865e-008,-97.865517,-151.5938
1.866e-008,-98.292549,-136.59789
1.867e-008,-98.749504,-121.61809
1.868e-008,-99.238518,-106.66299
1.869e-008,-99.761971,-91.741783
1.87e-008,-100.3226,-76.867172
1.871e-008,-100.92353,-62.053814
1.872e-008,-101.56843,-47.321732
1.873e-008,-102.26153,-32.696163
1.874e-008,-103.00774,-18.209711
1.875e-008,-103.81271,-3.9066088
1.876e-008,-104.68298,10.154462
1.877e-008,-105.62596,23.892372
1.878e-008,-106.64948,37.193119
1.879e-008,-107.76125,49.896767
1.88e-008,-108.96626,61.769772
1.881e-008,-110.2611,72.480919
1.882e-008,-111.62269,81.564499
1.883e-008,-112.98383,88.444206
1.884e-008,-114.19776,92.620354
1.885e-008,-115.02907,94.224419
1.886e-008,-115.25735,94.665009
1.887e-008,-114.86993,96.177528
1.888e-008,-114.07426,100.2946
1.889e-008,-113.11143,107.24854
1.89e-008,-112.13608,116.57178
1.891e-008,-111.22111,127.67899
1.892e-008,-110.3923,140.09639
1.893e-008,-109.65339,153.47444
1.894e-008,-108.99903,167.578
1.895e-008,-108.42133,-177.76291
1.896e-008,-107.91141,-162.66647
1.897e-008,-107.46129,-147.21661
1.898e-008,-107.0633,-131.47569
1.899e-008,-106.711,-115.49151
1.9e-008,-106.39837,-99.29937
1.901e-008,-106.12031,-82.929474
1.902e-008,-105.87218,-66.405525
1.903e-008,-105.64984,-49.747253
1.904e-008,-105.44966,-32.973434
1.905e-008,-105.26834,-16.100893
1.906e-008,-105.10296,0.85648245
1.907e-008,-104.95094,17.881742
1.908e-008,-104.80998,34.962479
1.909e-008,-104.67811,52.083763
1.91e-008,-104.55363,69.231918
1.911e-008,-104.43513,86.393616
1.912e-008,-104.32146,103.556
1.913e-008,-104.2117,120.70593
1.914e-008,-104.10519,137.83122
1.915e-008,-104.00133,154.92007
1.916e-008,-103.89996,171.96239
1.917e-008,-103.8008,-171.05264
1.918e-008,-103.70379,-154.13306
1.919e-008,-103.60894,-137.28816
1.92e-008,-103.51643,-120.52435
1.921e-008,-103.42625,-103.84766
1.922e-008,-103.33849,-87.263443
1.923e-008,-103.25323,-70.775978
1.924e-008,-103.17052,-54.388599
1.925e-008,-103.09023,-38.103325
1.926e-008,-103.01221,-21.922497
1.927e-008,-102.93636,-5.8458042
1.928e-008,-102.86232,10.126012
1.929e-008,-102.78962,25.994076
1.93e-008,-102.71782,41.760082
1.931e-008,-102.64632,57.426502
1.932e-008,-102.57462,72.9963
1.933e-008,-102.50186,88.473686
1.934e-008,-102.42741,103.86333
1.935e-008,-102.35046,119.17101
1.936e-008,-102.27026,134.40308
1.937e-008,-102.1861,149.56654
1.938e-008,-102.09731,164.6689
1.939e-008,-102.00321,179.71881
1.94e-008,-101.90335,-165.27513
1.941e-008,-101.79722,-150.30397
1.942e-008,-101.68456,-135.3584
1.943e-008,-101.5652,-120.42909
1.944e-008,-101.43907,-105.50709
1.945e-008,-101.30628,-90.583496
1.946e-008,-101.16699,-75.650246
1.947e-008,-101.02159,-60.699368
1.948e-008,-100.87049,-45.724426
1.949e-008,-100.71418,-30.719011
1.95e-008,-100.55328,-15.677963
1.951e-008,-100.38839,-0.59715146
1.952e-008,-100.22021,14.526841
1.953e-008,-100.04945,29.696587
1.954e-008,-99.876717,44.913551
1.955e-008,-99.702782,60.178535
1.956e-008,-99.528282,75.491554
1.957e-008,-99.353851,90.851852
1.958e-008,-99.180054,106.25854
1.959e-008,-99.007515,121.70929
1.96e-008,-98.836761,137.20238
1.961e-008,-98.668274,152.73494
1.962e-008,-98.502518,168.30418
1.963e-008,-98.339935,-176.09312
1.964e-008,-98.180885,-160.46042
1.965e-008,-98.025803,-144.80118
1.966e-008,-97.874916,-129.11894
1.967e-008,-97.728645,-113.41766
1.968e-008,-97.587196,-97.700706
1.969e-008,-97.450905,-81.972038
1.97e-008,-97.319969,-66.235153
1.971e-008,-97.194672,-50.493862
1.972e-008,-97.075218,-34.751781
1.973e-008,-96.961823,-19.012381
1.974e-008,-96.854652,-3.2789378
1.975e-008,-96.753929,12.444887
1.976e-008,-96.659821,28.156258
1.977e-008,-96.572479,43.851746
1.978e-008,-96.492058,59.528591
1.979e-008,-96.418709,75.183464
1.98e-008,-96.352539,90.813934
1.981e-008,-96.293663,106.41715
1.982e-008,-96.242172,121.99052
1.983e-008,-96.198174,137.53159
1.984e-008,-96.161705,153.03793
1.985e-008,-96.132797,168.50728
1.986e-008,-96.111519,-176.06252
1.987e-008,-96.097824,-160.67377
1.988e-008,-96.091736,-145.32829
1.989e-008,-96.093178,-130.02805
1.99e-008,-96.102097,-114.77476
1.991e-008,-96.118378,-99.570251
1.992e-008,-96.141922,-84.416084
1.993e-008,-96.172554,-69.313606
1.994e-008,-96.210098,-54.264317
1.995e-008,-96.254326,-39.269333
1.996e-008,-96.304985,-24.329523
1.997e-008,-96.361786,-9.4458399
1.998e-008,-96.424438,5.3812799
1.999e-008,-96.492569,20.151279
2e-008,-96.565796,34.864262
END

