!CSV A.01.01
!Keysight Technologies,N5227B,US58420762,A.13.80.08
!Date: Monday, November 20, 2023 16:37:16
!Source: Standard

BEGIN CH1_DATA
Time(s),S21(DB),S21(DEG)
1e-008,-114.97986,38.972935
1.001e-008,-114.82334,56.001221
1.002e-008,-114.68876,72.906654
1.003e-008,-114.57729,89.699867
1.004e-008,-114.49031,106.394
1.005e-008,-114.42841,122.9957
1.006e-008,-114.39252,139.5183
1.007e-008,-114.38319,155.96701
1.008e-008,-114.4014,172.3485
1.009e-008,-114.4474,-171.3288
1.01e-008,-114.52203,-155.05975
1.011e-008,-114.62624,-138.83894
1.012e-008,-114.76035,-122.66245
1.013e-008,-114.92562,-106.52399
1.014e-008,-115.12286,-90.41835
1.015e-008,-115.35327,-74.343521
1.016e-008,-115.61792,-58.293819
1.017e-008,-115.9183,-42.264759
1.018e-008,-116.25591,-26.252012
1.019e-008,-116.63285,-10.249111
1.02e-008,-117.05126,5.7499166
1.021e-008,-117.51384,21.75149
1.022e-008,-118.02324,37.764679
1.023e-008,-118.58308,53.801689
1.024e-008,-119.19803,69.877083
1.025e-008,-119.87305,86.010155
1.026e-008,-120.61401,102.22221
1.027e-008,-121.42905,118.55777
1.028e-008,-122.32775,135.05878
1.029e-008,-123.32114,151.79877
1.03e-008,-124.42431,168.87825
1.031e-008,-125.65493,-173.53397
1.032e-008,-127.03438,-155.19569
1.033e-008,-128.58513,-135.68925
1.034e-008,-130.31715,-114.32572
1.035e-008,-132.19485,-89.971252
1.036e-008,-134.03046,-61.022392
1.037e-008,-135.31412,-26.646736
1.038e-008,-135.42032,10.164783
1.039e-008,-134.41708,43.551155
1.04e-008,-132.96303,71.259888
1.041e-008,-131.50436,94.448708
1.042e-008,-130.19456,114.664
1.043e-008,-129.05751,132.9501
1.044e-008,-128.07162,149.97354
1.045e-008,-127.21639,166.11339
1.046e-008,-126.46613,-178.3802
1.047e-008,-125.80383,-163.34448
1.048e-008,-125.2103,-148.67334
1.049e-008,-124.67528,-134.2778
1.05e-008,-124.18576,-120.09034
1.051e-008,-123.73452,-106.05623
1.052e-008,-123.31523,-92.13678
1.053e-008,-122.92246,-78.283783
1.054e-008,-122.55199,-64.463684
1.055e-008,-122.20202,-50.646278
1.056e-008,-121.87057,-36.800468
1.057e-008,-121.5574,-22.901299
1.058e-008,-121.26257,-8.9304199
1.059e-008,-120.98644,5.1381187
1.06e-008,-120.72999,19.309965
1.061e-008,-120.49422,33.602158
1.062e-008,-120.2808,48.023457
1.063e-008,-120.09087,62.587509
1.064e-008,-119.9267,77.297104
1.065e-008,-119.78955,92.162155
1.066e-008,-119.68126,107.18581
1.067e-008,-119.60288,122.37592
1.068e-008,-119.55673,137.73677
1.069e-008,-119.54387,153.28432
1.07e-008,-119.56658,169.02307
1.071e-008,-119.62542,-175.03175
1.072e-008,-119.72256,-158.86493
1.073e-008,-119.85881,-142.45419
1.074e-008,-120.03612,-125.77442
1.075e-008,-120.25306,-108.79272
1.076e-008,-120.51231,-91.466621
1.077e-008,-120.81183,-73.753433
1.078e-008,-121.14919,-55.584427
1.079e-008,-121.51955,-36.901348
1.08e-008,-121.91584,-17.610695
1.081e-008,-122.32316,2.3638983
1.082e-008,-122.72358,23.106848
1.083e-008,-123.08887,44.667824
1.084e-008,-123.38461,67.035133
1.085e-008,-123.57207,90.121948
1.086e-008,-123.61613,113.7067
1.087e-008,-123.49773,137.47992
1.088e-008,-123.21646,161.09531
1.089e-008,-122.79474,-175.75603
1.09e-008,-122.26649,-153.27617
1.091e-008,-121.67274,-131.56117
1.092e-008,-121.04555,-110.60503
1.093e-008,-120.41274,-90.35083
1.094e-008,-119.79336,-70.72084
1.095e-008,-119.20042,-51.627304
1.096e-008,-118.64172,-32.991096
1.097e-008,-118.12154,-14.735206
1.098e-008,-117.64314,3.1982281
1.099e-008,-117.20704,20.863157
1.1e-008,-116.8138,38.298134
1.101e-008,-116.46275,55.538414
1.102e-008,-116.15379,72.615051
1.103e-008,-115.88564,89.547935
1.104e-008,-115.65803,106.35872
1.105e-008,-115.4703,123.06119
1.106e-008,-115.3219,139.66772
1.107e-008,-115.21194,156.19374
1.108e-008,-115.14088,172.64021
1.109e-008,-115.10793,-170.98204
1.11e-008,-115.11357,-154.66733
1.111e-008,-115.15759,-138.41298
1.112e-008,-115.24087,-122.21612
1.113e-008,-115.36311,-106.07455
1.114e-008,-115.52624,-89.989128
1.115e-008,-115.73048,-73.959702
1.116e-008,-115.97705,-57.987652
1.117e-008,-116.2682,-42.078148
1.118e-008,-116.60521,-26.231474
1.119e-008,-116.99066,-10.461229
1.12e-008,-117.42731,5.2277331
1.121e-008,-117.91853,20.819765
1.122e-008,-118.46824,36.301865
1.123e-008,-119.0808,51.643547
1.124e-008,-119.76268,66.823593
1.125e-008,-120.52046,81.793068
1.126e-008,-121.36163,96.497849
1.127e-008,-122.29618,110.85293
1.128e-008,-123.33598,124.74416
1.129e-008,-124.49177,137.99265
1.13e-008,-125.77499,150.34537
1.131e-008,-127.18987,161.39708
1.132e-008,-128.71812,170.57397
1.133e-008,-130.28766,177.06396
1.134e-008,-131.70506,-179.9048
1.135e-008,-132.63664,179.84155
1.136e-008,-132.78511,178.49594
1.137e-008,-132.21741,179.24417
1.138e-008,-131.28119,-176.36327
1.139e-008,-130.27119,-168.60638
1.14e-008,-129.34218,-158.29826
1.141e-008,-128.54257,-146.18245
1.142e-008,-127.88386,-132.76357
1.143e-008,-127.36055,-118.36796
1.144e-008,-126.96284,-103.19858
1.145e-008,-126.67875,-87.384972
1.146e-008,-126.49921,-70.988457
1.147e-008,-126.41437,-54.044281
1.148e-008,-126.4158,-36.541531
1.149e-008,-126.49395,-18.448206
1.15e-008,-126.63563,0.27574649
1.151e-008,-126.82706,19.696775
1.152e-008,-127.04766,39.890503
1.153e-008,-127.26913,60.911049
1.154e-008,-127.45791,82.78286
1.155e-008,-127.57394,105.43075
1.156e-008,-127.5736,128.70442
1.157e-008,-127.42883,152.31258
1.158e-008,-127.12862,175.89261
1.159e-008,-126.68497,-160.89357
1.16e-008,-126.12643,-138.31029
1.161e-008,-125.49329,-116.49931
1.162e-008,-124.82108,-95.499588
1.163e-008,-124.14054,-75.269455
1.164e-008,-123.47318,-55.748436
1.165e-008,-122.83369,-36.842381
1.166e-008,-122.23177,-18.467209
1.167e-008,-121.67249,-0.54748452
1.168e-008,-121.15803,16.976974
1.169e-008,-120.6902,34.164848
1.17e-008,-120.26845,51.052906
1.171e-008,-119.892,67.685692
1.172e-008,-119.55982,84.075874
1.173e-008,-119.27049,100.25747
1.174e-008,-119.02248,116.24366
1.175e-008,-118.81413,132.04727
1.176e-008,-118.64449,147.67519
1.177e-008,-118.51144,163.136
1.178e-008,-118.41422,178.43292
1.179e-008,-118.35048,-166.42955
1.18e-008,-118.31934,-151.45656
1.181e-008,-118.3195,-136.64308
1.182e-008,-118.3483,-121.99678
1.183e-008,-118.40456,-107.51646
1.184e-008,-118.48641,-93.210251
1.185e-008,-118.59135,-79.077347
1.186e-008,-118.71759,-65.126823
1.187e-008,-118.86176,-51.35585
1.188e-008,-119.02216,-37.771748
1.189e-008,-119.19495,-24.371567
1.19e-008,-119.3773,-11.153884
1.191e-008,-119.56584,1.888543
1.192e-008,-119.75759,14.76474
1.193e-008,-119.94878,27.485216
1.194e-008,-120.13739,40.06908
1.195e-008,-120.32021,52.542992
1.196e-008,-120.49572,64.922241
1.197e-008,-120.66441,77.245995
1.198e-008,-120.82515,89.536453
1.199e-008,-120.97884,101.82277
1.2e-008,-121.12865,114.13087
1.201e-008,-121.27608,126.4872
1.202e-008,-121.42764,138.9091
1.203e-008,-121.58445,151.40839
1.204e-008,-121.75336,164.00681
1.205e-008,-121.93885,176.69223
1.206e-008,-122.14723,-170.53064
1.207e-008,-122.38321,-157.66599
1.208e-008,-122.65192,-144.72791
1.209e-008,-122.96053,-131.73674
1.21e-008,-123.31496,-118.71581
1.211e-008,-123.72136,-105.68228
1.212e-008,-124.1877,-92.685387
1.213e-008,-124.72201,-79.751503
1.214e-008,-125.33217,-66.95224
1.215e-008,-126.03043,-54.374924
1.216e-008,-126.82881,-42.109135
1.217e-008,-127.73861,-30.305605
1.218e-008,-128.77748,-19.205978
1.219e-008,-129.95387,-9.1497135
1.22e-008,-131.27484,-0.61048979
1.221e-008,-132.70351,5.5793743
1.222e-008,-134.11778,8.4824753
1.223e-008,-135.22542,7.4231129
1.224e-008,-135.61705,3.503854
1.225e-008,-135.12016,0.2129366
1.226e-008,-134.03452,0.40758815
1.227e-008,-132.7551,4.5271297
1.228e-008,-131.52353,11.650781
1.229e-008,-130.42305,20.855652
1.23e-008,-129.47559,31.437845
1.231e-008,-128.67696,42.95702
1.232e-008,-128.02106,55.102554
1.233e-008,-127.49169,67.676491
1.234e-008,-127.08109,80.507202
1.235e-008,-126.78143,93.497482
1.236e-008,-126.58751,106.52904
1.237e-008,-126.49374,119.54698
1.238e-008,-126.49931,132.44246
1.239e-008,-126.60268,145.11661
1.24e-008,-126.79967,157.48346
1.241e-008,-127.09137,169.37337
1.242e-008,-127.47154,-179.35136
1.243e-008,-127.92791,-168.90709
1.244e-008,-128.43845,-159.56804
1.245e-008,-128.95612,-151.58505
1.246e-008,-129.40907,-145.1732
1.247e-008,-129.68889,-140.3044
1.248e-008,-129.68275,-136.53725
1.249e-008,-129.32605,-132.96016
1.25e-008,-128.6431,-128.57648
1.251e-008,-127.73318,-122.69286
1.252e-008,-126.70776,-115.13855
1.253e-008,-125.65381,-106.02188
1.254e-008,-124.62756,-95.608673
1.255e-008,-123.65903,-84.146622
1.256e-008,-122.75986,-71.863403
1.257e-008,-121.93549,-58.938377
1.258e-008,-121.18581,-45.500237
1.259e-008,-120.50861,-31.650032
1.26e-008,-119.90108,-17.46847
1.261e-008,-119.35942,-3.0092402
1.262e-008,-118.88134,11.681275
1.263e-008,-118.46394,26.570238
1.264e-008,-118.10483,41.632343
1.265e-008,-117.80199,56.846096
1.266e-008,-117.55437,72.1987
1.267e-008,-117.36085,87.67765
1.268e-008,-117.22111,103.27761
1.269e-008,-117.1347,118.99445
1.27e-008,-117.10239,134.82692
1.271e-008,-117.12469,150.77713
1.272e-008,-117.20287,166.84996
1.273e-008,-117.33907,-176.94681
1.274e-008,-117.53589,-160.59396
1.275e-008,-117.79594,-144.07765
1.276e-008,-118.12408,-127.36897
1.277e-008,-118.52499,-110.43345
1.278e-008,-119.00406,-93.216934
1.279e-008,-119.56905,-75.650543
1.28e-008,-120.22775,-57.631771
1.281e-008,-120.98896,-39.023182
1.282e-008,-121.85963,-19.606627
1.283e-008,-122.84328,0.91148013
1.284e-008,-123.92788,22.976521
1.285e-008,-125.06619,47.190636
1.286e-008,-126.13779,74.208855
1.287e-008,-126.91558,104.26865
1.288e-008,-127.12102,136.37332
1.289e-008,-126.64244,168.15652
1.29e-008,-125.65688,-162.51607
1.291e-008,-124.44769,-136.2289
1.292e-008,-123.21239,-112.57013
1.293e-008,-122.04783,-90.866142
1.294e-008,-120.98973,-70.561142
1.295e-008,-120.04383,-51.247341
1.296e-008,-119.20604,-32.652077
1.297e-008,-118.46774,-14.581996
1.298e-008,-117.82095,3.0911779
1.299e-008,-117.257,20.467155
1.3e-008,-116.76988,37.607086
1.301e-008,-116.35306,54.562542
1.302e-008,-116.00266,71.370094
1.303e-008,-115.71414,88.062119
1.304e-008,-115.48477,104.65559
1.305e-008,-115.31198,121.17207
1.306e-008,-115.19477,137.62436
1.307e-008,-115.13103,154.02577
1.308e-008,-115.12094,170.38649
1.309e-008,-115.16408,-173.28432
1.31e-008,-115.26078,-156.97568
1.311e-008,-115.41207,-140.68053
1.312e-008,-115.61981,-124.38763
1.313e-008,-115.88571,-108.08881
1.314e-008,-116.21353,-91.770256
1.315e-008,-116.60642,-75.420296
1.316e-008,-117.06978,-59.017342
1.317e-008,-117.60992,-42.541637
1.318e-008,-118.23559,-25.9583
1.319e-008,-118.9561,-9.2253075
1.32e-008,-119.78695,7.7208986
1.321e-008,-120.74509,24.975365
1.322e-008,-121.85529,42.6898
1.323e-008,-123.14919,61.097115
1.324e-008,-124.66657,80.627716
1.325e-008,-126.45421,102.0376
1.326e-008,-128.52968,126.79729
1.327e-008,-130.74011,157.54709
1.328e-008,-132.34851,-163.03908
1.329e-008,-132.13692,-119.62353
1.33e-008,-130.388,-82.824501
1.331e-008,-128.3307,-54.367325
1.332e-008,-126.48449,-31.180914
1.333e-008,-124.92593,-10.962844
1.334e-008,-123.62148,7.4913378
1.335e-008,-122.52486,24.837
1.336e-008,-121.59433,41.407047
1.337e-008,-120.80207,57.418888
1.338e-008,-120.12257,72.991142
1.339e-008,-119.53749,88.208038
1.34e-008,-119.0323,103.11703
1.341e-008,-118.59418,117.75584
1.342e-008,-118.21305,132.14929
1.343e-008,-117.87945,146.31546
1.344e-008,-117.58556,160.26564
1.345e-008,-117.32378,174.02222
1.346e-008,-117.08716,-172.4059
1.347e-008,-116.86946,-158.99963
1.348e-008,-116.66537,-145.7402
1.349e-008,-116.46964,-132.60376
1.35e-008,-116.27794,-119.56866
1.351e-008,-116.08678,-106.60206
1.352e-008,-115.89322,-93.679367
1.353e-008,-115.69627,-80.760864
1.354e-008,-115.49506,-67.822067
1.355e-008,-115.28944,-54.82946
1.356e-008,-115.08099,-41.757004
1.357e-008,-114.87185,-28.578207
1.358e-008,-114.66389,-15.276422
1.359e-008,-114.46011,-1.8303608
1.36e-008,-114.26339,11.766905
1.361e-008,-114.077,25.529505
1.362e-008,-113.90343,39.458733
1.363e-008,-113.74609,53.560017
1.364e-008,-113.60741,67.834198
1.365e-008,-113.48953,82.279839
1.366e-008,-113.39536,96.89859
1.367e-008,-113.32671,111.68956
1.368e-008,-113.28552,126.64807
1.369e-008,-113.27364,141.77965
1.37e-008,-113.29275,157.0822
1.371e-008,-113.34449,172.56047
1.372e-008,-113.43029,-171.784
1.373e-008,-113.55148,-155.93944
1.374e-008,-113.70947,-139.89902
1.375e-008,-113.90554,-123.64779
1.376e-008,-114.14099,-107.1703
1.377e-008,-114.41643,-90.44236
1.378e-008,-114.73232,-73.437401
1.379e-008,-115.08904,-56.118385
1.38e-008,-115.48545,-38.445072
1.381e-008,-115.91963,-20.365448
1.382e-008,-116.38723,-1.8188013
1.383e-008,-116.8812,17.265085
1.384e-008,-117.39109,36.954544
1.385e-008,-117.90003,57.319523
1.386e-008,-118.38575,78.404388
1.387e-008,-118.81972,100.21565
1.388e-008,-119.16985,122.68568
1.389e-008,-119.40491,145.6545
1.39e-008,-119.50308,168.88078
1.391e-008,-119.4587,-167.93434
1.392e-008,-119.28449,-145.07376
1.393e-008,-119.00642,-122.75758
1.394e-008,-118.65782,-101.11438
1.395e-008,-118.2703,-80.184853
1.396e-008,-117.87262,-59.946079
1.397e-008,-117.48605,-40.344059
1.398e-008,-117.12591,-21.311563
1.399e-008,-116.80309,-2.776633
1.4e-008,-116.52475,15.326765
1.401e-008,-116.29624,33.052135
1.402e-008,-116.12122,50.446823
1.403e-008,-116.0018,67.547516
1.404e-008,-115.94009,84.383492
1.405e-008,-115.93884,100.97444
1.406e-008,-116,117.33272
1.407e-008,-116.12613,133.46371
1.408e-008,-116.32041,149.36617
1.409e-008,-116.58712,165.02657
1.41e-008,-116.93092,-179.57246
1.411e-008,-117.35825,-164.47368
1.412e-008,-117.87619,-149.72215
1.413e-008,-118.4942,-135.40231
1.414e-008,-119.22284,-121.6334
1.415e-008,-120.0743,-108.59477
1.416e-008,-121.05824,-96.556099
1.417e-008,-122.17899,-85.935318
1.418e-008,-123.41584,-77.353844
1.419e-008,-124.68635,-71.675682
1.42e-008,-125.78072,-69.683151
1.421e-008,-126.33772,-71.078644
1.422e-008,-126.06818,-73.366272
1.423e-008,-125.0852,-73.294464
1.424e-008,-123.76152,-69.523483
1.425e-008,-122.38891,-62.502159
1.426e-008,-121.10284,-53.123432
1.427e-008,-119.94585,-42.140182
1.428e-008,-118.92451,-30.06357
1.429e-008,-118.02959,-17.234125
1.43e-008,-117.24895,-3.8786399
1.431e-008,-116.57122,9.8478127
1.432e-008,-115.98626,23.841576
1.433e-008,-115.48512,38.024208
1.434e-008,-115.06113,52.33717
1.435e-008,-114.70793,66.738678
1.436e-008,-114.42097,81.191582
1.437e-008,-114.19656,95.665855
1.438e-008,-114.03145,110.13551
1.439e-008,-113.9229,124.57865
1.44e-008,-113.86909,138.96999
1.441e-008,-113.86829,153.28755
1.442e-008,-113.91887,167.50822
1.443e-008,-114.0196,-178.39371
1.444e-008,-114.16925,-164.44659
1.445e-008,-114.36684,-150.68079
1.446e-008,-114.61016,-137.13034
1.447e-008,-114.89718,-123.83572
1.448e-008,-115.22499,-110.84029
1.449e-008,-115.58891,-98.191444
1.45e-008,-115.9827,-85.945297
1.451e-008,-116.39718,-74.150047
1.452e-008,-116.82016,-62.855793
1.453e-008,-117.23645,-52.093987
1.454e-008,-117.62611,-41.876949
1.455e-008,-117.96729,-32.1702
1.456e-008,-118.23846,-22.888254
1.457e-008,-118.42115,-13.893614
1.458e-008,-118.50496,-4.9994736
1.459e-008,-118.49149,3.9960237
1.46e-008,-118.39,13.276122
1.461e-008,-118.22155,22.980671
1.462e-008,-118.0079,33.193417
1.463e-008,-117.77285,43.951088
1.464e-008,-117.53605,55.238449
1.465e-008,-117.31548,67.025742
1.466e-008,-117.1238,79.265327
1.467e-008,-116.97239,91.89959
1.468e-008,-116.86913,104.88463
1.469e-008,-116.82131,118.16235
1.47e-008,-116.83346,131.69519
1.471e-008,-116.91212,145.44031
1.472e-008,-117.06287,159.36717
1.473e-008,-117.29163,173.43665
1.474e-008,-117.60574,-172.37627
1.475e-008,-118.01456,-158.10193
1.476e-008,-118.52974,-143.76752
1.477e-008,-119.16841,-129.40936
1.478e-008,-119.95078,-115.0673
1.479e-008,-120.90895,-100.78753
1.48e-008,-122.0892,-86.654549
1.481e-008,-123.56367,-72.808052
1.482e-008,-125.45543,-59.523148
1.483e-008,-127.99664,-47.458096
1.484e-008,-131.69653,-38.655041
1.485e-008,-137.81892,-43.785439
1.486e-008,-140.74228,-111.83236
1.487e-008,-133.47031,-134.07811
1.488e-008,-128.99136,-128.00594
1.489e-008,-126.01891,-116.70638
1.49e-008,-123.83659,-103.68924
1.491e-008,-122.1396,-89.923141
1.492e-008,-120.77604,-75.776375
1.493e-008,-119.65789,-61.41769
1.494e-008,-118.73112,-46.943954
1.495e-008,-117.96024,-32.418716
1.496e-008,-117.32083,-17.880409
1.497e-008,-116.79588,-3.3596103
1.498e-008,-116.37182,11.113122
1.499e-008,-116.03937,25.51512
1.5e-008,-115.79174,39.815041
1.501e-008,-115.62315,53.98967
1.502e-008,-115.52927,68.006813
1.503e-008,-115.50605,81.828629
1.504e-008,-115.55089,95.413879
1.505e-008,-115.6601,108.71226
1.506e-008,-115.82949,121.66534
1.507e-008,-116.05329,134.20332
1.508e-008,-116.32414,146.2502
1.509e-008,-116.6301,157.7186
1.51e-008,-116.95451,168.52562
1.511e-008,-117.27299,178.59537
1.512e-008,-117.55546,-172.09955
1.513e-008,-117.76408,-163.52039
1.514e-008,-117.86184,-155.52167
1.515e-008,-117.81928,-147.85268
1.516e-008,-117.6253,-140.19087
1.517e-008,-117.28905,-132.20152
1.518e-008,-116.83903,-123.62968
1.519e-008,-116.31083,-114.32442
1.52e-008,-115.7419,-104.24065
1.521e-008,-115.1627,-93.403114
1.522e-008,-114.59701,-81.881683
1.523e-008,-114.06083,-69.758568
1.524e-008,-113.56565,-57.122101
1.525e-008,-113.11832,-44.04847
1.526e-008,-112.7235,-30.6049
1.527e-008,-112.38347,-16.84885
1.528e-008,-112.10025,-2.8288372
1.529e-008,-111.87493,11.414835
1.53e-008,-111.70863,25.850468
1.531e-008,-111.60237,40.451851
1.532e-008,-111.55746,55.194557
1.533e-008,-111.57589,70.062302
1.534e-008,-111.66014,85.038147
1.535e-008,-111.8129,100.1109
1.536e-008,-112.03883,115.26985
1.537e-008,-112.34279,130.50668
1.538e-008,-112.7321,145.81667
1.539e-008,-113.21529,161.19559
1.54e-008,-113.80525,176.64311
1.541e-008,-114.51784,-167.84195
1.542e-008,-115.37574,-152.25133
1.543e-008,-116.41132,-136.57246
1.544e-008,-117.67316,-120.7803
1.545e-008,-119.23784,-104.82262
1.546e-008,-121.2386,-88.587364
1.547e-008,-123.93515,-71.788078
1.548e-008,-127.95834,-53.458786
1.549e-008,-135.61804,-27.09425
1.55e-008,-140.24695,118.0643
1.551e-008,-129.80023,156.64664
1.552e-008,-125.12712,176.09381
1.553e-008,-122.17574,-166.75592
1.554e-008,-120.05933,-150.32722
1.555e-008,-118.44681,-134.21873
1.556e-008,-117.17801,-118.28748
1.557e-008,-116.16473,-102.4642
1.558e-008,-115.35323,-86.719513
1.559e-008,-114.70957,-71.039345
1.56e-008,-114.21141,-55.414909
1.561e-008,-113.84384,-39.846825
1.562e-008,-113.59731,-24.336411
1.563e-008,-113.46692,-8.8936214
1.564e-008,-113.45072,6.4715056
1.565e-008,-113.55093,21.739086
1.566e-008,-113.772,36.885578
1.567e-008,-114.12344,51.871792
1.568e-008,-114.61939,66.643341
1.569e-008,-115.2807,81.113632
1.57e-008,-116.13774,95.14344
1.571e-008,-117.23606,108.49532
1.572e-008,-118.64186,120.72242
1.573e-008,-120.4527,130.92375
1.574e-008,-122.78117,137.0354
1.575e-008,-125.53764,134.12334
1.576e-008,-127.23237,115.63385
1.577e-008,-125.48768,95.657761
1.578e-008,-122.36384,91.238525
1.579e-008,-119.60671,96.634949
1.58e-008,-117.37421,106.46822
1.581e-008,-115.55527,118.4641
1.582e-008,-114.0488,131.63858
1.583e-008,-112.78329,145.50981
1.584e-008,-111.7103,159.82291
1.585e-008,-110.79659,174.42892
1.586e-008,-110.01799,-170.76527
1.587e-008,-109.3577,-155.82201
1.588e-008,-108.80295,-140.78198
1.589e-008,-108.34481,-125.67927
1.59e-008,-107.97667,-110.53529
1.591e-008,-107.69382,-95.37162
1.592e-008,-107.49328,-80.206131
1.593e-008,-107.37367,-65.055099
1.594e-008,-107.33473,-49.934727
1.595e-008,-107.37743,-34.862915
1.596e-008,-107.50433,-19.860743
1.597e-008,-107.71905,-4.9531674
1.598e-008,-108.02734,9.8300104
1.599e-008,-108.43658,24.447052
1.6e-008,-108.9566,38.842457
1.601e-008,-109.60075,52.936558
1.602e-008,-110.38604,66.615158
1.603e-008,-111.33434,79.698914
1.604e-008,-112.47303,91.904503
1.605e-008,-113.83325,102.74995
1.606e-008,-115.43699,111.40121
1.607e-008,-117.24822,116.4032
1.608e-008,-119.0172,115.63367
1.609e-008,-120.03242,108.29636
1.61e-008,-119.57329,99.536774
1.611e-008,-118.04926,96.311607
1.612e-008,-116.30457,99.448936
1.613e-008,-114.73132,106.8567
1.614e-008,-113.41975,116.80712
1.615e-008,-112.36441,128.27336
1.616e-008,-111.54285,140.66335
1.617e-008,-110.93495,153.61441
1.618e-008,-110.52844,166.88783
1.619e-008,-110.31927,-179.69409
1.62e-008,-110.31277,-166.29054
1.621e-008,-110.52458,-153.07207
1.622e-008,-110.98383,-140.26689
1.623e-008,-111.73847,-128.2338
1.624e-008,-112.8618,-117.62305
1.625e-008,-114.45461,-109.79884
1.626e-008,-116.57111,-107.92638
1.627e-008,-118.6506,-118.47076
1.628e-008,-118.29443,-140.79657
1.629e-008,-115.19359,-153.27977
1.63e-008,-111.85835,-152.4518
1.631e-008,-109.02264,-145.01074
1.632e-008,-106.6527,-134.46484
1.633e-008,-104.64018,-122.30935
1.634e-008,-102.90135,-109.23914
1.635e-008,-101.37757,-95.612762
1.636e-008,-100.02834,-81.633698
1.637e-008,-98.824898,-67.427322
1.638e-008,-97.746269,-53.076035
1.639e-008,-96.776955,-38.6385
1.64e-008,-95.90538,-24.159584
1.641e-008,-95.122719,-9.6757612
1.642e-008,-94.422165,4.7808685
1.643e-008,-93.798576,19.179836
1.644e-008,-93.247993,33.490017
1.645e-008,-92.767403,47.678783
1.646e-008,-92.354424,61.709175
1.647e-008,-92.007088,75.538651
1.648e-008,-91.723518,89.116722
1.649e-008,-91.50148,102.38315
1.65e-008,-91.337769,115.26477
1.651e-008,-91.227325,127.67391
1.652e-008,-91.161705,139.50694
1.653e-008,-91.127327,150.64725
1.654e-008,-91.102692,160.97469
1.655e-008,-91.055931,170.38835
1.656e-008,-90.943573,178.84772
1.657e-008,-90.713654,-173.57133
1.658e-008,-90.31588,-166.62851
1.659e-008,-89.717567,-159.92641
1.66e-008,-88.916801,-152.99788
1.661e-008,-87.942978,-145.43692
1.662e-008,-86.844177,-136.99147
1.663e-008,-85.671051,-127.57492
1.664e-008,-84.466156,-117.22108
1.665e-008,-83.260437,-106.02735
1.666e-008,-82.074135,-94.112404
1.667e-008,-80.919388,-81.592171
1.668e-008,-79.802765,-68.569344
1.669e-008,-78.727219,-55.130634
1.67e-008,-77.693527,-41.347332
1.671e-008,-76.701149,-27.277401
1.672e-008,-75.748795,-12.967826
1.673e-008,-74.834824,1.5433825
1.674e-008,-73.957436,16.225346
1.675e-008,-73.114792,31.052813
1.676e-008,-72.305115,46.005123
1.677e-008,-71.526695,61.065121
1.678e-008,-70.777931,76.218628
1.679e-008,-70.057335,91.453758
1.68e-008,-69.363533,106.7605
1.681e-008,-68.695251,122.13039
1.682e-008,-68.051331,137.55626
1.683e-008,-67.430695,153.03189
1.684e-008,-66.832344,168.55202
1.685e-008,-66.255386,-175.88795
1.686e-008,-65.698975,-160.29202
1.687e-008,-65.162338,-144.66362
1.688e-008,-64.644768,-129.00584
1.689e-008,-64.145615,-113.32133
1.69e-008,-63.664257,-97.612488
1.691e-008,-63.200146,-81.881378
1.692e-008,-62.752754,-66.129898
1.693e-008,-62.321602,-50.359688
1.694e-008,-61.906239,-34.572258
1.695e-008,-61.506248,-18.768944
1.696e-008,-61.121239,-2.9509475
1.697e-008,-60.750851,12.880626
1.698e-008,-60.394749,28.724802
1.699e-008,-60.052616,44.580681
1.7e-008,-59.724159,60.447433
1.701e-008,-59.409103,76.324326
1.702e-008,-59.107193,92.21067
1.703e-008,-58.818188,108.10583
1.704e-008,-58.541866,124.00925
1.705e-008,-58.278015,139.92038
1.706e-008,-58.026443,155.83875
1.707e-008,-57.786964,171.76389
1.708e-008,-57.559406,-172.30463
1.709e-008,-57.343616,-156.36717
1.71e-008,-57.139439,-140.42412
1.711e-008,-56.946739,-124.4758
1.712e-008,-56.765392,-108.52254
1.713e-008,-56.595268,-92.564636
1.714e-008,-56.436268,-76.602364
1.715e-008,-56.288284,-60.635983
1.716e-008,-56.151222,-44.665745
1.717e-008,-56.024994,-28.691891
1.718e-008,-55.909523,-12.714627
1.719e-008,-55.804741,3.2658207
1.72e-008,-55.710575,19.249256
1.721e-008,-55.626976,35.235489
1.722e-008,-55.553886,51.224335
1.723e-008,-55.491261,67.215622
1.724e-008,-55.43906,83.20916
1.725e-008,-55.397259,99.204826
1.726e-008,-55.365822,115.20241
1.727e-008,-55.34473,131.20178
1.728e-008,-55.333977,147.2028
1.729e-008,-55.333542,163.20531
1.73e-008,-55.343433,179.20917
1.731e-008,-55.363644,-164.7858
1.732e-008,-55.394192,-148.77971
1.733e-008,-55.435085,-132.77271
1.734e-008,-55.486347,-116.76492
1.735e-008,-55.548008,-100.75653
1.736e-008,-55.620102,-84.747665
1.737e-008,-55.70266,-68.738472
1.738e-008,-55.795738,-52.729099
1.739e-008,-55.899384,-36.719704
1.74e-008,-56.01366,-20.710451
1.741e-008,-56.13863,-4.7015047
1.742e-008,-56.274376,11.306958
1.743e-008,-56.420971,27.314764
1.744e-008,-56.578506,43.321712
1.745e-008,-56.747086,59.327606
1.746e-008,-56.926815,75.332237
1.747e-008,-57.117809,91.335365
1.748e-008,-57.320194,107.33677
1.749e-008,-57.534111,123.33616
1.75e-008,-57.759701,139.33328
1.751e-008,-57.997128,155.3278
1.752e-008,-58.246563,171.31941
1.753e-008,-58.508194,-172.69226
1.754e-008,-58.782223,-156.70761
1.755e-008,-59.068859,-140.72707
1.756e-008,-59.368343,-124.75111
1.757e-008,-59.680923,-108.78028
1.758e-008,-60.00687,-92.815147
1.759e-008,-60.346481,-76.856377
1.76e-008,-60.700073,-60.904694
1.761e-008,-61.067989,-44.960911
1.762e-008,-61.450607,-29.025951
1.763e-008,-61.848328,-13.100848
1.764e-008,-62.261597,2.8132212
1.765e-008,-62.690891,18.714937
1.766e-008,-63.136745,34.602772
1.767e-008,-63.599731,50.474987
1.768e-008,-64.08049,66.32959
1.769e-008,-64.579704,82.164276
1.77e-008,-65.098152,97.976364
1.771e-008,-65.636688,113.76275
1.772e-008,-66.196251,129.51978
1.773e-008,-66.777901,145.24315
1.774e-008,-67.382797,160.92778
1.775e-008,-68.012268,176.56761
1.776e-008,-68.667786,-167.84464
1.777e-008,-69.351021,-152.31775
1.778e-008,-70.06385,-136.86241
1.779e-008,-70.808403,-121.4918
1.78e-008,-71.58709,-106.22217
1.781e-008,-72.402641,-91.073891
1.782e-008,-73.258156,-76.072731
1.783e-008,-74.157074,-61.251595
1.784e-008,-75.103226,-46.653049
1.785e-008,-76.1007,-32.332748
1.786e-008,-77.153671,-18.364412
1.787e-008,-78.265823,-4.8465247
1.788e-008,-79.439354,8.0884142
1.789e-008,-80.672798,20.262417
1.79e-008,-81.956955,31.44055
1.791e-008,-83.267448,41.328323
1.792e-008,-84.55304,49.602497
1.793e-008,-85.722504,56.023022
1.794e-008,-86.644585,60.669769
1.795e-008,-87.187653,64.20295
1.796e-008,-87.297058,67.80069
1.797e-008,-87.036423,72.611816
1.798e-008,-86.53949,79.239738
1.799e-008,-85.934044,87.72348
1.8e-008,-85.306679,97.807312
1.801e-008,-84.704918,109.167
1.802e-008,-84.150581,121.51183
1.803e-008,-83.651222,134.61122
1.804e-008,-83.207069,148.29057
1.805e-008,-82.814957,162.4193
1.806e-008,-82.470337,176.89998
1.807e-008,-82.168282,-168.34094
1.808e-008,-81.903946,-153.35971
1.809e-008,-81.672783,-138.19987
1.81e-008,-81.470627,-122.89583
1.811e-008,-81.293709,-107.47491
1.812e-008,-81.138618,-91.959373
1.813e-008,-81.002304,-76.367599
1.814e-008,-80.882019,-60.714851
1.815e-008,-80.775307,-45.013878
1.816e-008,-80.67997,-29.275694
1.817e-008,-80.594048,-13.509635
1.818e-008,-80.5158,2.2762885
1.819e-008,-80.443672,18.07523
1.82e-008,-80.37632,33.881268
1.821e-008,-80.312569,49.689396
1.822e-008,-80.251389,65.495407
1.823e-008,-80.191933,81.295845
1.824e-008,-80.133484,97.087845
1.825e-008,-80.075455,112.86934
1.826e-008,-80.017418,128.63866
1.827e-008,-79.959023,144.39476
1.828e-008,-79.90007,160.1371
1.829e-008,-79.840454,175.86548
1.83e-008,-79.780136,-168.41988
1.831e-008,-79.719208,-152.71828
1.832e-008,-79.657814,-137.02896
1.833e-008,-79.596169,-121.35081
1.834e-008,-79.534554,-105.68258
1.835e-008,-79.473289,-90.022758
1.836e-008,-79.412773,-74.369926
1.837e-008,-79.353394,-58.722492
1.838e-008,-79.295586,-43.078873
1.839e-008,-79.239822,-27.437481
1.84e-008,-79.186562,-11.796818
1.841e-008,-79.136292,3.8446782
1.842e-008,-79.089478,19.488365
1.843e-008,-79.046616,35.135548
1.844e-008,-79.008163,50.78751
1.845e-008,-78.974586,66.445343
1.846e-008,-78.946327,82.110107
1.847e-008,-78.92382,97.78273
1.848e-008,-78.907478,113.46405
1.849e-008,-78.89769,129.15486
1.85e-008,-78.894829,144.85577
1.851e-008,-78.899239,160.56741
1.852e-008,-78.911255,176.29027
1.853e-008,-78.931183,-167.9752
1.854e-008,-78.959305,-152.22852
1.855e-008,-78.99588,-136.46939
1.856e-008,-79.041145,-120.69755
1.857e-008,-79.095329,-104.91264
1.858e-008,-79.158623,-89.114403
1.859e-008,-79.231209,-73.302658
1.86e-008,-79.313248,-57.477116
1.861e-008,-79.404884,-41.63763
1.862e-008,-79.506226,-25.783968
1.863e-008,-79.617393,-9.9159107
1.864e-008,-79.738472,5.9667377
1.865e-008,-79.869537,21.864212
1.866e-008,-80.010628,37.776711
1.867e-008,-80.161812,53.704533
1.868e-008,-80.32309,69.647881
1.869e-008,-80.494476,85.606995
1.87e-008,-80.675972,101.58221
1.871e-008,-80.867546,117.57378
1.872e-008,-81.069168,133.58202
1.873e-008,-81.280769,149.60719
1.874e-008,-81.502289,165.6497
1.875e-008,-81.733635,-178.29025
1.876e-008,-81.974701,-162.21223
1.877e-008,-82.225357,-146.11609
1.878e-008,-82.485474,-130.00136
1.879e-008,-82.754875,-113.86794
1.88e-008,-83.033394,-97.715546
1.881e-008,-83.320808,-81.544075
1.882e-008,-83.616913,-65.353287
1.883e-008,-83.921463,-49.143295
1.884e-008,-84.234177,-32.914085
1.885e-008,-84.554787,-16.66593
1.886e-008,-84.882973,-0.39899313
1.887e-008,-85.218399,15.886115
1.888e-008,-85.560722,32.188789
1.889e-008,-85.909576,48.508156
1.89e-008,-86.264565,64.84314
1.891e-008,-86.62529,81.192299
1.892e-008,-86.991341,97.554077
1.893e-008,-87.362282,113.92644
1.894e-008,-87.737686,130.30721
1.895e-008,-88.117126,146.6936
1.896e-008,-88.500175,163.08269
1.897e-008,-88.886383,179.47095
1.898e-008,-89.275383,-164.1454
1.899e-008,-89.666748,-147.77066
1.9e-008,-90.060135,-131.40927
1.901e-008,-90.4552,-115.06653
1.902e-008,-90.851669,-98.747726
1.903e-008,-91.249207,-82.458611
1.904e-008,-91.647659,-66.205261
1.905e-008,-92.046806,-49.994171
1.906e-008,-92.446503,-33.831913
1.907e-008,-92.846626,-17.72534
1.908e-008,-93.247131,-1.68129
1.909e-008,-93.647911,14.292948
1.91e-008,-94.048988,30.190611
1.911e-008,-94.450256,46.004147
1.912e-008,-94.851746,61.726864
1.913e-008,-95.253319,77.351921
1.914e-008,-95.654945,92.872757
1.915e-008,-96.056381,108.28249
1.916e-008,-96.457481,123.57614
1.917e-008,-96.857887,138.74747
1.918e-008,-97.257202,153.79204
1.919e-008,-97.654846,168.70576
1.92e-008,-98.050278,-176.5143
1.921e-008,-98.442612,-161.87024
1.922e-008,-98.831032,-147.36241
1.923e-008,-99.214439,-132.98997
1.924e-008,-99.591919,-118.75011
1.925e-008,-99.962219,-104.63774
1.926e-008,-100.32434,-90.646317
1.927e-008,-100.67709,-76.766075
1.928e-008,-101.01973,-62.986019
1.929e-008,-101.35146,-49.291759
1.93e-008,-101.67188,-35.668011
1.931e-008,-101.98087,-22.096966
1.932e-008,-102.27894,-8.5603971
1.933e-008,-102.56676,4.961628
1.934e-008,-102.84567,18.487722
1.935e-008,-103.11739,32.037502
1.936e-008,-103.38425,45.62851
1.937e-008,-103.6488,59.277691
1.938e-008,-103.91408,72.999573
1.939e-008,-104.18344,86.808235
1.94e-008,-104.46074,100.71299
1.941e-008,-104.7496,114.72504
1.942e-008,-105.05447,128.85031
1.943e-008,-105.37964,143.09738
1.944e-008,-105.73006,157.46989
1.945e-008,-106.11084,171.97453
1.946e-008,-106.52764,-173.38437
1.947e-008,-106.98682,-158.59894
1.948e-008,-107.49583,-143.66327
1.949e-008,-108.06316,-128.56474
1.95e-008,-108.69914,-113.28949
1.951e-008,-109.4167,-97.812683
1.952e-008,-110.23218,-82.102188
1.953e-008,-111.16737,-66.102684
1.954e-008,-112.2518,-49.72913
1.955e-008,-113.5277,-32.832218
1.956e-008,-115.05724,-15.152127
1.957e-008,-116.93655,3.8471322
1.958e-008,-119.31594,25.352812
1.959e-008,-122.39375,52.499149
1.96e-008,-125.9188,93.985695
1.961e-008,-126.58803,155.22134
1.962e-008,-123.25923,-157.22173
1.963e-008,-119.93648,-127.26902
1.964e-008,-117.34555,-104.36329
1.965e-008,-115.30668,-84.383369
1.966e-008,-113.65314,-65.815857
1.967e-008,-112.27638,-48.009632
1.968e-008,-111.10808,-30.648573
1.969e-008,-110.10208,-13.562077
1.97e-008,-109.22684,3.3526039
1.971e-008,-108.45947,20.158382
1.972e-008,-107.78358,36.895809
1.973e-008,-107.18616,53.5933
1.974e-008,-106.65752,70.268883
1.975e-008,-106.18999,86.938431
1.976e-008,-105.77735,103.61169
1.977e-008,-105.41454,120.297
1.978e-008,-105.09741,136.99898
1.979e-008,-104.82248,153.72324
1.98e-008,-104.58712,170.47331
1.981e-008,-104.38881,-172.74857
1.982e-008,-104.22566,-155.94086
1.983e-008,-104.09592,-139.10115
1.984e-008,-103.99831,-122.22823
1.985e-008,-103.93169,-105.32327
1.986e-008,-103.89521,-88.384003
1.987e-008,-103.88815,-71.412201
1.988e-008,-103.91022,-54.407261
1.989e-008,-103.96111,-37.370754
1.99e-008,-104.04084,-20.304701
1.991e-008,-104.14973,-3.2097633
1.992e-008,-104.28828,13.912042
1.993e-008,-104.45729,31.057785
1.994e-008,-104.65788,48.225018
1.995e-008,-104.89175,65.409454
1.996e-008,-105.16079,82.608856
1.997e-008,-105.4678,99.817444
1.998e-008,-105.81591,117.03129
1.999e-008,-106.20945,134.24318
2e-008,-106.65387,151.44707
END

