!CSV A.01.01
!Keysight Technologies,N5227B,US58420762,A.13.80.08
!Date: Monday, November 20, 2023 16:25:50
!Source: Standard

BEGIN CH1_DATA
Time(s),S21(DB),S21(DEG)
1e-008,-120.07632,-105.7989
1.001e-008,-119.43192,-89.812836
1.002e-008,-118.84349,-73.923584
1.003e-008,-118.30744,-58.12228
1.004e-008,-117.81903,-42.397125
1.005e-008,-117.37608,-26.741087
1.006e-008,-116.97533,-11.15068
1.007e-008,-116.61459,4.3796563
1.008e-008,-116.29173,19.849669
1.009e-008,-116.00499,35.262489
1.01e-008,-115.75247,50.613796
1.011e-008,-115.53274,65.907692
1.012e-008,-115.34434,81.139328
1.013e-008,-115.18598,96.308868
1.014e-008,-115.05604,111.41272
1.015e-008,-114.95363,126.44843
1.016e-008,-114.87728,141.4119
1.017e-008,-114.82581,156.30026
1.018e-008,-114.79776,171.10886
1.019e-008,-114.79179,-174.16408
1.02e-008,-114.80626,-159.52432
1.021e-008,-114.83984,-144.97345
1.022e-008,-114.89064,-130.51526
1.023e-008,-114.9564,-116.15195
1.024e-008,-115.03564,-101.8848
1.025e-008,-115.12584,-87.714157
1.026e-008,-115.22479,-73.637619
1.027e-008,-115.32987,-59.650639
1.028e-008,-115.43874,-45.74921
1.029e-008,-115.54857,-31.921207
1.03e-008,-115.65705,-18.158035
1.031e-008,-115.76165,-4.4413199
1.032e-008,-115.86032,9.2445507
1.033e-008,-115.95148,22.921986
1.034e-008,-116.0335,36.61401
1.035e-008,-116.10539,50.346165
1.036e-008,-116.16726,64.143478
1.037e-008,-116.21893,78.033508
1.038e-008,-116.26124,92.041557
1.039e-008,-116.29498,106.19273
1.04e-008,-116.32192,120.50936
1.041e-008,-116.3436,135.01115
1.042e-008,-116.3615,149.71826
1.043e-008,-116.37735,164.64479
1.044e-008,-116.39279,179.80583
1.045e-008,-116.40849,-164.7888
1.046e-008,-116.42593,-149.12984
1.047e-008,-116.44493,-133.2079
1.048e-008,-116.46561,-117.01921
1.049e-008,-116.48766,-100.55906
1.05e-008,-116.50935,-83.82579
1.051e-008,-116.52923,-66.823387
1.052e-008,-116.545,-49.552017
1.053e-008,-116.55418,-32.022141
1.054e-008,-116.55333,-14.245272
1.055e-008,-116.5398,3.7597787
1.056e-008,-116.51016,21.97279
1.057e-008,-116.46192,40.36581
1.058e-008,-116.39238,58.903389
1.059e-008,-116.30032,77.552429
1.06e-008,-116.18486,96.274231
1.061e-008,-116.04665,115.02885
1.062e-008,-115.88677,133.77812
1.063e-008,-115.70802,152.48924
1.064e-008,-115.51284,171.13118
1.065e-008,-115.30527,-170.32068
1.066e-008,-115.08907,-151.88594
1.067e-008,-114.86859,-133.5789
1.068e-008,-114.64721,-115.40506
1.069e-008,-114.42908,-97.372292
1.07e-008,-114.21764,-79.479553
1.071e-008,-114.0162,-61.723545
1.072e-008,-113.82738,-44.102257
1.073e-008,-113.65359,-26.608118
1.074e-008,-113.49706,-9.2355528
1.075e-008,-113.35963,8.0245132
1.076e-008,-113.24299,25.176769
1.077e-008,-113.14818,42.2309
1.078e-008,-113.07683,59.192722
1.079e-008,-113.02985,76.070129
1.08e-008,-113.00826,92.869469
1.081e-008,-113.01281,109.59715
1.082e-008,-113.0446,126.25896
1.083e-008,-113.10426,142.86237
1.084e-008,-113.19264,159.40942
1.085e-008,-113.31066,175.9084
1.086e-008,-113.45931,-167.63676
1.087e-008,-113.63948,-151.21919
1.088e-008,-113.85213,-134.83495
1.089e-008,-114.09853,-118.4782
1.09e-008,-114.37991,-102.14215
1.091e-008,-114.69767,-85.820396
1.092e-008,-115.05352,-69.50518
1.093e-008,-115.44912,-53.18869
1.094e-008,-115.88697,-36.856628
1.095e-008,-116.36909,-20.500124
1.096e-008,-116.89854,-4.0995712
1.097e-008,-117.47802,12.363572
1.098e-008,-118.11186,28.918028
1.099e-008,-118.80383,45.597824
1.1e-008,-119.55882,62.447464
1.101e-008,-120.3815,79.533165
1.102e-008,-121.27849,96.941643
1.103e-008,-122.2537,114.78726
1.104e-008,-123.31099,133.23901
1.105e-008,-124.44896,152.52751
1.106e-008,-125.65411,172.97577
1.107e-008,-126.88994,-165.01451
1.108e-008,-128.07503,-141.00783
1.109e-008,-129.06499,-114.784
1.11e-008,-129.66739,-86.755112
1.111e-008,-129.7476,-58.275497
1.112e-008,-129.3338,-31.013851
1.113e-008,-128.59477,-6.0129242
1.114e-008,-127.70683,16.585684
1.115e-008,-126.79184,37.118603
1.116e-008,-125.9091,56.041477
1.117e-008,-125.08327,73.742424
1.118e-008,-124.31952,90.521156
1.119e-008,-123.61564,106.60242
1.12e-008,-122.96524,122.15647
1.121e-008,-122.36179,137.30452
1.122e-008,-121.79868,152.14677
1.123e-008,-121.27092,166.7617
1.124e-008,-120.77343,-178.7899
1.125e-008,-120.30319,-164.45398
1.126e-008,-119.85734,-150.18918
1.127e-008,-119.43439,-135.95898
1.128e-008,-119.03334,-121.73281
1.129e-008,-118.65392,-107.48843
1.13e-008,-118.29604,-93.202339
1.131e-008,-117.96014,-78.860435
1.132e-008,-117.6471,-64.450066
1.133e-008,-117.35751,-49.960964
1.134e-008,-117.09222,-35.386112
1.135e-008,-116.85258,-20.720888
1.136e-008,-116.63917,-5.9605341
1.137e-008,-116.45346,8.8979578
1.138e-008,-116.29633,23.856005
1.139e-008,-116.1687,38.917877
1.14e-008,-116.07166,54.083111
1.141e-008,-116.0063,69.353127
1.142e-008,-115.97346,84.732712
1.143e-008,-115.97453,100.22243
1.144e-008,-116.01029,115.82889
1.145e-008,-116.0823,131.55568
1.146e-008,-116.19135,147.41042
1.147e-008,-116.33865,163.40363
1.148e-008,-116.52579,179.54419
1.149e-008,-116.75389,-164.14967
1.15e-008,-117.02415,-147.66295
1.151e-008,-117.3381,-130.97055
1.152e-008,-117.69655,-114.04299
1.153e-008,-118.10045,-96.84478
1.154e-008,-118.54924,-79.329346
1.155e-008,-119.04245,-61.444923
1.156e-008,-119.57719,-43.123131
1.157e-008,-120.14787,-24.285778
1.158e-008,-120.74439,-4.8474574
1.159e-008,-121.3523,15.284855
1.16e-008,-121.94788,36.187683
1.161e-008,-122.49979,57.904202
1.162e-008,-122.96822,80.389854
1.163e-008,-123.31331,103.50214
1.164e-008,-123.5021,126.95992
1.165e-008,-123.52137,150.39572
1.166e-008,-123.38263,173.44104
1.167e-008,-123.11732,-164.18982
1.168e-008,-122.76669,-142.67516
1.169e-008,-122.37074,-122.06335
1.17e-008,-121.96313,-102.33472
1.171e-008,-121.56809,-83.412407
1.172e-008,-121.20296,-65.223129
1.173e-008,-120.87745,-47.693279
1.174e-008,-120.59887,-30.757608
1.175e-008,-120.36823,-14.367245
1.176e-008,-120.18739,1.5120962
1.177e-008,-120.05489,16.896349
1.178e-008,-119.96802,31.797915
1.179e-008,-119.92242,46.212215
1.18e-008,-119.91232,60.127548
1.181e-008,-119.92995,73.528992
1.182e-008,-119.96516,86.401932
1.183e-008,-120.00489,98.733604
1.184e-008,-120.03449,110.52933
1.185e-008,-120.03622,121.81648
1.186e-008,-119.99312,132.65273
1.187e-008,-119.88862,143.13568
1.188e-008,-119.71039,153.39864
1.189e-008,-119.4532,163.58755
1.19e-008,-119.11979,173.86226
1.191e-008,-118.71758,-175.63797
1.192e-008,-118.26118,-164.8118
1.193e-008,-117.76675,-153.59268
1.194e-008,-117.2506,-141.94791
1.195e-008,-116.72721,-129.88004
1.196e-008,-116.20921,-117.40678
1.197e-008,-115.70648,-104.55788
1.198e-008,-115.2261,-91.368469
1.199e-008,-114.77344,-77.876717
1.2e-008,-114.35282,-64.118576
1.201e-008,-113.96661,-50.125988
1.202e-008,-113.61696,-35.929096
1.203e-008,-113.30508,-21.553436
1.204e-008,-113.03191,-7.0201569
1.205e-008,-112.79797,7.6475825
1.206e-008,-112.604,22.433182
1.207e-008,-112.45034,37.324963
1.208e-008,-112.33734,52.304474
1.209e-008,-112.26592,67.363754
1.21e-008,-112.23657,82.491966
1.211e-008,-112.25002,97.680595
1.212e-008,-112.30801,112.9203
1.213e-008,-112.41118,128.20467
1.214e-008,-112.56168,143.52649
1.215e-008,-112.76145,158.87947
1.216e-008,-113.01334,174.25697
1.217e-008,-113.31989,-170.34653
1.218e-008,-113.68585,-154.93719
1.219e-008,-114.11562,-139.52266
1.22e-008,-114.61548,-124.10996
1.221e-008,-115.19286,-108.71191
1.222e-008,-115.85822,-93.336403
1.223e-008,-116.62417,-78.002869
1.224e-008,-117.50714,-62.73177
1.225e-008,-118.53201,-47.557304
1.226e-008,-119.73212,-32.531948
1.227e-008,-121.15716,-17.74703
1.228e-008,-122.88651,-3.3652542
1.229e-008,-125.05568,10.267495
1.23e-008,-127.92051,22.276138
1.231e-008,-132.04506,29.754822
1.232e-008,-138.49243,16.98859
1.233e-008,-138.55524,-47.139214
1.234e-008,-132.37981,-59.509445
1.235e-008,-128.52063,-51.943604
1.236e-008,-125.91741,-39.869736
1.237e-008,-124.01151,-26.182449
1.238e-008,-122.54833,-11.727596
1.239e-008,-121.39349,3.1445742
1.24e-008,-120.47079,18.270897
1.241e-008,-119.73067,33.561291
1.242e-008,-119.14134,48.965614
1.243e-008,-118.68114,64.455727
1.244e-008,-118.33411,80.005104
1.245e-008,-118.09006,95.603844
1.246e-008,-117.94118,111.24267
1.247e-008,-117.88251,126.91433
1.248e-008,-117.91045,142.61748
1.249e-008,-118.02537,158.34732
1.25e-008,-118.22674,174.10548
1.251e-008,-118.5173,-170.10719
1.252e-008,-118.90129,-154.28445
1.253e-008,-119.38522,-138.4189
1.254e-008,-119.97826,-122.49657
1.255e-008,-120.69347,-106.50036
1.256e-008,-121.54845,-90.394882
1.257e-008,-122.56993,-74.131935
1.258e-008,-123.79472,-57.623962
1.259e-008,-125.28027,-40.718933
1.26e-008,-127.11685,-23.106474
1.261e-008,-129.46089,-4.10882
1.262e-008,-132.59554,18.09486
1.263e-008,-136.96933,49.798843
1.264e-008,-141.0238,112.19188
1.265e-008,-137.73254,178.1924
1.266e-008,-133.51141,-148.63792
1.267e-008,-130.56386,-126.37615
1.268e-008,-128.4474,-107.83092
1.269e-008,-126.85941,-90.989502
1.27e-008,-125.63766,-75.132233
1.271e-008,-124.68464,-59.947628
1.272e-008,-123.94147,-45.314266
1.273e-008,-123.36557,-31.170853
1.274e-008,-122.92757,-17.512981
1.275e-008,-122.60273,-4.3621902
1.276e-008,-122.36977,8.2476425
1.277e-008,-122.2063,20.26614
1.278e-008,-122.08895,31.647299
1.279e-008,-121.99037,42.363464
1.28e-008,-121.87995,52.41597
1.281e-008,-121.72452,61.872036
1.282e-008,-121.49422,70.862434
1.283e-008,-121.16599,79.599564
1.284e-008,-120.73043,88.333931
1.285e-008,-120.19283,97.313194
1.286e-008,-119.57184,106.74289
1.287e-008,-118.89367,116.75144
1.288e-008,-118.18471,127.39377
1.289e-008,-117.46877,138.6705
1.29e-008,-116.76519,150.53543
1.291e-008,-116.08833,162.93715
1.292e-008,-115.44817,175.80948
1.293e-008,-114.8511,-170.90714
1.294e-008,-114.3017,-157.27081
1.295e-008,-113.80256,-143.32854
1.296e-008,-113.35493,-129.12259
1.297e-008,-112.95992,-114.68647
1.298e-008,-112.61794,-100.05062
1.299e-008,-112.32934,-85.237534
1.3e-008,-112.0947,-70.267632
1.301e-008,-111.91422,-55.156025
1.302e-008,-111.78888,-39.915222
1.303e-008,-111.7196,-24.553999
1.304e-008,-111.70777,-9.0786781
1.305e-008,-111.75523,6.5069027
1.306e-008,-111.86447,22.201691
1.307e-008,-112.03844,38.008568
1.308e-008,-112.28108,53.933987
1.309e-008,-112.59724,69.98867
1.31e-008,-112.99329,86.186699
1.311e-008,-113.47686,102.5551
1.312e-008,-114.05818,119.12795
1.313e-008,-114.74993,135.95982
1.314e-008,-115.56905,153.12878
1.315e-008,-116.53727,170.76239
1.316e-008,-117.68361,-170.93985
1.317e-008,-119.04562,-151.63829
1.318e-008,-120.66819,-130.71985
1.319e-008,-122.58589,-107.04105
1.32e-008,-124.73852,-78.445297
1.321e-008,-126.66575,-41.904762
1.322e-008,-127.19957,1.6473436
1.323e-008,-125.89833,42.145206
1.324e-008,-123.90315,74.063965
1.325e-008,-122.0181,99.69986
1.326e-008,-120.4322,121.76669
1.327e-008,-119.13815,141.80151
1.328e-008,-118.09464,160.62074
1.329e-008,-117.26472,178.66469
1.33e-008,-116.61975,-163.80894
1.331e-008,-116.14003,-146.64397
1.332e-008,-115.81322,-129.74095
1.333e-008,-115.63261,-113.03059
1.334e-008,-115.59652,-96.466965
1.335e-008,-115.7097,-80.014366
1.336e-008,-115.98187,-63.647144
1.337e-008,-116.43112,-47.340408
1.338e-008,-117.08662,-31.071505
1.339e-008,-117.99443,-14.815509
1.34e-008,-119.23204,1.4712073
1.341e-008,-120.9367,17.860275
1.342e-008,-123.38376,34.540295
1.343e-008,-127.26669,52.153526
1.344e-008,-135.43134,75.555374
1.345e-008,-138.02777,-117.82197
1.346e-008,-127.47231,-90.211685
1.347e-008,-122.65932,-72.429115
1.348e-008,-119.50542,-55.931789
1.349e-008,-117.16662,-39.88665
1.35e-008,-115.32426,-24.077452
1.351e-008,-113.82359,-8.4287682
1.352e-008,-112.57818,7.0911264
1.353e-008,-111.53561,22.49124
1.354e-008,-110.66187,37.771954
1.355e-008,-109.93417,52.92469
1.356e-008,-109.33725,67.934937
1.357e-008,-108.86112,82.780922
1.358e-008,-108.49934,97.433075
1.359e-008,-108.2485,111.85097
1.36e-008,-108.10747,125.98025
1.361e-008,-108.07706,139.74689
1.362e-008,-108.15936,153.04836
1.363e-008,-108.3568,165.74323
1.364e-008,-108.66982,177.6308
1.365e-008,-109.09309,-171.56894
1.366e-008,-109.60581,-162.23904
1.367e-008,-110.15479,-154.85521
1.368e-008,-110.62864,-149.86548
1.369e-008,-110.84319,-147.32774
1.37e-008,-110.59468,-146.37987
1.371e-008,-109.8019,-145.26265
1.372e-008,-108.58128,-142.34178
1.373e-008,-107.1405,-136.97945
1.374e-008,-105.6479,-129.35945
1.375e-008,-104.19847,-119.95673
1.376e-008,-102.83461,-109.2355
1.377e-008,-101.57025,-97.560173
1.378e-008,-100.40638,-85.196747
1.379e-008,-99.338455,-72.33773
1.38e-008,-98.36026,-59.121861
1.381e-008,-97.465355,-45.653133
1.382e-008,-96.647797,-32.010498
1.383e-008,-95.902306,-18.256594
1.384e-008,-95.224319,-4.4431963
1.385e-008,-94.609879,9.3850431
1.386e-008,-94.05558,23.187445
1.387e-008,-93.558357,36.925381
1.388e-008,-93.115379,50.560474
1.389e-008,-92.723801,64.052734
1.39e-008,-92.380646,77.359909
1.391e-008,-92.082359,90.43634
1.392e-008,-91.824554,103.23174
1.393e-008,-91.601387,115.69219
1.394e-008,-91.405083,127.76089
1.395e-008,-91.225082,139.38104
1.396e-008,-91.047424,150.50264
1.397e-008,-90.854233,161.09102
1.398e-008,-90.62397,171.14145
1.399e-008,-90.332664,-179.30612
1.4e-008,-89.956978,-170.15494
1.401e-008,-89.478233,-161.25011
1.402e-008,-88.886749,-152.39468
1.403e-008,-88.184166,-143.38074
1.404e-008,-87.382881,-134.02466
1.405e-008,-86.502647,-124.19307
1.406e-008,-85.566139,-113.81173
1.407e-008,-84.595192,-102.85886
1.408e-008,-83.608505,-91.35096
1.409e-008,-82.620819,-79.327843
1.41e-008,-81.643021,-66.840309
1.411e-008,-80.682724,-53.941959
1.412e-008,-79.74498,-40.684345
1.413e-008,-78.832909,-27.114546
1.414e-008,-77.948273,-13.274239
1.415e-008,-77.091881,0.80036992
1.416e-008,-76.263885,15.078169
1.417e-008,-75.463997,29.532574
1.418e-008,-74.691681,44.140926
1.419e-008,-73.94619,58.883942
1.42e-008,-73.22673,73.745201
1.421e-008,-72.53241,88.710625
1.422e-008,-71.862373,103.7682
1.423e-008,-71.215752,118.90757
1.424e-008,-70.591705,134.11983
1.425e-008,-69.989426,149.39723
1.426e-008,-69.40815,164.73309
1.427e-008,-68.847153,-179.87843
1.428e-008,-68.305748,-164.44246
1.429e-008,-67.783287,-148.96349
1.43e-008,-67.279167,-133.44548
1.431e-008,-66.792824,-117.89192
1.432e-008,-66.323723,-102.30592
1.433e-008,-65.871368,-86.690224
1.434e-008,-65.435287,-71.047318
1.435e-008,-65.015053,-55.379414
1.436e-008,-64.610252,-39.688469
1.437e-008,-64.220505,-23.97628
1.438e-008,-63.845459,-8.2444572
1.439e-008,-63.484764,7.505547
1.44e-008,-63.138119,23.272402
1.441e-008,-62.805222,39.054909
1.442e-008,-62.485806,54.851971
1.443e-008,-62.179604,70.662582
1.444e-008,-61.886379,86.485825
1.445e-008,-61.605904,102.32085
1.446e-008,-61.337963,118.16689
1.447e-008,-61.082359,134.02322
1.448e-008,-60.838909,149.88919
1.449e-008,-60.607437,165.76418
1.45e-008,-60.387775,-178.35242
1.451e-008,-60.179779,-162.46107
1.452e-008,-59.983303,-146.56232
1.453e-008,-59.798214,-130.6566
1.454e-008,-59.62439,-114.74438
1.455e-008,-59.461716,-98.826027
1.456e-008,-59.310089,-82.90197
1.457e-008,-59.169411,-66.972542
1.458e-008,-59.039589,-51.038082
1.459e-008,-58.920544,-35.098949
1.46e-008,-58.812202,-19.15543
1.461e-008,-58.714493,-3.2078333
1.462e-008,-58.627357,12.74356
1.463e-008,-58.550743,28.698471
1.464e-008,-58.484596,44.656635
1.465e-008,-58.428879,60.617802
1.466e-008,-58.38356,76.581703
1.467e-008,-58.348606,92.548111
1.468e-008,-58.324001,108.51678
1.469e-008,-58.309719,124.48746
1.47e-008,-58.305759,140.45995
1.471e-008,-58.312115,156.43398
1.472e-008,-58.328789,172.40935
1.473e-008,-58.355785,-171.61421
1.474e-008,-58.393127,-155.63692
1.475e-008,-58.44083,-139.659
1.476e-008,-58.49892,-123.68071
1.477e-008,-58.56744,-107.70229
1.478e-008,-58.646423,-91.724014
1.479e-008,-58.735924,-75.746124
1.48e-008,-58.835995,-59.768909
1.481e-008,-58.946697,-43.792648
1.482e-008,-59.068108,-27.81764
1.483e-008,-59.200298,-11.844201
1.484e-008,-59.343369,4.1273379
1.485e-008,-59.497402,20.096626
1.486e-008,-59.662518,36.063297
1.487e-008,-59.838825,52.026936
1.488e-008,-60.026451,67.987122
1.489e-008,-60.22554,83.943398
1.49e-008,-60.436237,99.895271
1.491e-008,-60.658718,115.84219
1.492e-008,-60.89315,131.78362
1.493e-008,-61.139729,147.71884
1.494e-008,-61.39867,163.64722
1.495e-008,-61.6702,179.56798
1.496e-008,-61.954567,-164.5197
1.497e-008,-62.252041,-148.61676
1.498e-008,-62.562912,-132.72423
1.499e-008,-62.887505,-116.84323
1.5e-008,-63.226162,-100.97501
1.501e-008,-63.579262,-85.121002
1.502e-008,-63.947216,-69.282791
1.503e-008,-64.330482,-53.462135
1.504e-008,-64.729546,-37.661064
1.505e-008,-65.144958,-21.881847
1.506e-008,-65.577309,-6.1270852
1.507e-008,-66.027252,9.6002522
1.508e-008,-66.495522,25.296757
1.509e-008,-66.982903,40.958496
1.51e-008,-67.490295,56.580906
1.511e-008,-68.018677,72.158661
1.512e-008,-68.569138,87.685509
1.513e-008,-69.142891,103.15406
1.514e-008,-69.741302,118.55557
1.515e-008,-70.365883,133.87953
1.516e-008,-71.018318,149.11333
1.517e-008,-71.700485,164.24155
1.518e-008,-72.414467,179.24538
1.519e-008,-73.162552,-165.89847
1.52e-008,-73.947227,-151.21904
1.521e-008,-74.771133,-136.75285
1.522e-008,-75.636948,-122.54638
1.523e-008,-76.547173,-108.65906
1.524e-008,-77.503708,-95.167374
1.525e-008,-78.507095,-82.170143
1.526e-008,-79.555084,-69.794189
1.527e-008,-80.640289,-58.199413
1.528e-008,-81.746185,-47.578449
1.529e-008,-82.841362,-38.141121
1.53e-008,-83.872871,-30.065207
1.531e-008,-84.763412,-23.394108
1.532e-008,-85.42218,-17.895962
1.533e-008,-85.776688,-12.98666
1.534e-008,-85.810944,-7.8615384
1.535e-008,-85.575218,-1.8051808
1.536e-008,-85.156654,5.5744529
1.537e-008,-84.640877,14.341563
1.538e-008,-84.091698,24.362999
1.539e-008,-83.549164,35.434139
1.54e-008,-83.035324,47.350727
1.541e-008,-82.560745,59.936871
1.542e-008,-82.129227,73.050667
1.543e-008,-81.740852,86.580742
1.544e-008,-81.393837,100.44057
1.545e-008,-81.085457,114.56288
1.546e-008,-80.812668,128.89517
1.547e-008,-80.572388,143.39612
1.548e-008,-80.361641,158.03285
1.549e-008,-80.177635,172.77908
1.55e-008,-80.017769,-172.3864
1.551e-008,-79.879684,-157.48097
1.552e-008,-79.7612,-142.51884
1.553e-008,-79.660324,-127.51175
1.554e-008,-79.575256,-112.46938
1.555e-008,-79.504341,-97.399841
1.556e-008,-79.44606,-82.30983
1.557e-008,-79.399048,-67.20488
1.558e-008,-79.362053,-52.089577
1.559e-008,-79.333954,-36.967625
1.56e-008,-79.313705,-21.842037
1.561e-008,-79.3004,-6.7151508
1.562e-008,-79.293205,8.4112606
1.563e-008,-79.291382,23.535885
1.564e-008,-79.294304,38.65786
1.565e-008,-79.301407,53.776707
1.566e-008,-79.312233,68.89225
1.567e-008,-79.326393,84.004654
1.568e-008,-79.343575,99.114227
1.569e-008,-79.363564,114.22154
1.57e-008,-79.386208,129.32727
1.571e-008,-79.411415,144.43216
1.572e-008,-79.439186,159.53709
1.573e-008,-79.469566,174.64296
1.574e-008,-79.502655,-170.24944
1.575e-008,-79.538635,-155.13919
1.576e-008,-79.577713,-140.02557
1.577e-008,-79.620148,-124.90788
1.578e-008,-79.666252,-109.78554
1.579e-008,-79.716362,-94.658104
1.58e-008,-79.770828,-79.525238
1.581e-008,-79.830078,-64.38681
1.582e-008,-79.894516,-49.242756
1.583e-008,-79.964592,-34.093262
1.584e-008,-80.040756,-18.938606
1.585e-008,-80.123482,-3.779274
1.586e-008,-80.213257,11.384093
1.587e-008,-80.310562,26.550673
1.588e-008,-80.415909,41.719467
1.589e-008,-80.529793,56.889347
1.59e-008,-80.652733,72.058975
1.591e-008,-80.78524,87.226837
1.592e-008,-80.927841,102.39126
1.593e-008,-81.081062,117.55029
1.594e-008,-81.245438,132.70193
1.595e-008,-81.421509,147.84373
1.596e-008,-81.609833,162.97327
1.597e-008,-81.810966,178.08762
1.598e-008,-82.025497,-166.81631
1.599e-008,-82.254005,-151.7419
1.6e-008,-82.497108,-136.69308
1.601e-008,-82.755417,-121.67407
1.602e-008,-83.029594,-106.68964
1.603e-008,-83.32029,-91.745125
1.604e-008,-83.628204,-76.846603
1.605e-008,-83.954048,-62.000885
1.606e-008,-84.298546,-47.215679
1.607e-008,-84.66246,-32.500011
1.608e-008,-85.046539,-17.864002
1.609e-008,-85.45153,-3.3194544
1.61e-008,-85.878174,11.119922
1.611e-008,-86.327133,25.438274
1.612e-008,-86.798981,39.617035
1.613e-008,-87.294113,53.634411
1.614e-008,-87.812683,67.465111
1.615e-008,-88.354416,81.079361
1.616e-008,-88.918434,94.442711
1.617e-008,-89.502983,107.51541
1.618e-008,-90.105034,120.25238
1.619e-008,-90.71978,132.60393
1.62e-008,-91.340065,144.51762
1.621e-008,-91.955635,155.9425
1.622e-008,-92.552574,166.83615
1.623e-008,-93.112976,177.17552
1.624e-008,-93.615509,-173.02855
1.625e-008,-94.037277,-163.71695
1.626e-008,-94.357048,-154.77321
1.627e-008,-94.559654,-146.02737
1.628e-008,-94.639664,-137.27689
1.629e-008,-94.60289,-128.31979
1.63e-008,-94.464729,-118.98801
1.631e-008,-94.246529,-109.16721
1.632e-008,-93.9711,-98.800201
1.633e-008,-93.659645,-87.877884
1.634e-008,-93.329826,-76.423965
1.635e-008,-92.995399,-64.481262
1.636e-008,-92.66642,-52.100803
1.637e-008,-92.349907,-39.334858
1.638e-008,-92.050545,-26.232683
1.639e-008,-91.771233,-12.839097
1.64e-008,-91.513672,0.8067072
1.641e-008,-91.278679,14.670463
1.642e-008,-91.06646,28.722931
1.643e-008,-90.876831,42.939045
1.644e-008,-90.709366,57.297363
1.645e-008,-90.563469,71.779701
1.646e-008,-90.438438,86.370407
1.647e-008,-90.333534,101.05598
1.648e-008,-90.247993,115.82486
1.649e-008,-90.181076,130.6669
1.65e-008,-90.132042,145.57338
1.651e-008,-90.100159,160.53644
1.652e-008,-90.08474,175.54933
1.653e-008,-90.085121,-169.39417
1.654e-008,-90.100685,-154.29953
1.655e-008,-90.130798,-139.17188
1.656e-008,-90.174927,-124.01573
1.657e-008,-90.232491,-108.83554
1.658e-008,-90.302979,-93.635368
1.659e-008,-90.38588,-78.418945
1.66e-008,-90.480721,-63.190201
1.661e-008,-90.587044,-47.952705
1.662e-008,-90.704384,-32.710049
1.663e-008,-90.832321,-17.465719
1.664e-008,-90.970406,-2.2233274
1.665e-008,-91.118217,13.013423
1.666e-008,-91.27536,28.24106
1.667e-008,-91.441383,43.455719
1.668e-008,-91.615875,58.653664
1.669e-008,-91.798409,73.830948
1.67e-008,-91.988541,88.983536
1.671e-008,-92.185791,104.10748
1.672e-008,-92.389717,119.19846
1.673e-008,-92.599762,134.25209
1.674e-008,-92.815407,149.26433
1.675e-008,-93.036072,164.23067
1.676e-008,-93.261139,179.14682
1.677e-008,-93.489922,-165.9915
1.678e-008,-93.721687,-151.18843
1.679e-008,-93.955666,-136.44772
1.68e-008,-94.19101,-121.77313
1.681e-008,-94.426773,-107.16768
1.682e-008,-94.66201,-92.634216
1.683e-008,-94.895668,-78.174332
1.684e-008,-95.126671,-63.789513
1.685e-008,-95.353912,-49.479679
1.686e-008,-95.576218,-35.244202
1.687e-008,-95.792511,-21.080591
1.688e-008,-96.001663,-6.9856997
1.689e-008,-96.202652,7.0452299
1.69e-008,-96.394569,21.018499
1.691e-008,-96.576675,34.941566
1.692e-008,-96.74836,48.822933
1.693e-008,-96.909241,62.672363
1.694e-008,-97.059303,76.500374
1.695e-008,-97.198692,90.318039
1.696e-008,-97.327881,104.1362
1.697e-008,-97.44767,117.96641
1.698e-008,-97.559097,131.81885
1.699e-008,-97.663498,145.70381
1.7e-008,-97.762459,159.62979
1.701e-008,-97.857727,173.60475
1.702e-008,-97.951286,-172.36501
1.703e-008,-98.04528,-158.27419
1.704e-008,-98.141869,-144.11945
1.705e-008,-98.243423,-129.89821
1.706e-008,-98.352341,-115.60914
1.707e-008,-98.471031,-101.25256
1.708e-008,-98.602066,-86.829727
1.709e-008,-98.748062,-72.342514
1.71e-008,-98.911736,-57.794178
1.711e-008,-99.09597,-43.189034
1.712e-008,-99.303696,-28.531397
1.713e-008,-99.538239,-13.827256
1.714e-008,-99.803192,0.91662312
1.715e-008,-100.10251,15.692732
1.716e-008,-100.44079,30.491617
1.717e-008,-100.82319,45.302345
1.718e-008,-101.256,60.110809
1.719e-008,-101.7468,74.900085
1.72e-008,-102.30463,89.648262
1.721e-008,-102.94141,104.32489
1.722e-008,-103.67202,118.88805
1.723e-008,-104.51633,133.27603
1.724e-008,-105.50146,147.3943
1.725e-008,-106.66557,161.0878
1.726e-008,-108.06405,174.08485
1.727e-008,-109.77961,-174.1362
1.728e-008,-111.93503,-164.69386
1.729e-008,-114.6697,-160.3214
1.73e-008,-117.74654,-167.85341
1.731e-008,-118.72825,167.51489
1.732e-008,-115.99477,150.34711
1.733e-008,-112.74482,149.88873
1.734e-008,-110.07021,157.38087
1.735e-008,-107.91244,168.35571
1.736e-008,-106.13,-178.93164
1.737e-008,-104.62083,-165.24451
1.738e-008,-103.31694,-150.95729
1.739e-008,-102.17261,-136.27258
1.74e-008,-101.15567,-121.31031
1.741e-008,-100.24313,-106.1463
1.742e-008,-99.417915,-90.828857
1.743e-008,-98.667046,-75.3918
1.744e-008,-97.980484,-59.859573
1.745e-008,-97.350166,-44.248936
1.746e-008,-96.769653,-28.573545
1.747e-008,-96.233788,-12.843153
1.748e-008,-95.738159,2.9344156
1.749e-008,-95.279144,18.752888
1.75e-008,-94.853668,34.607174
1.751e-008,-94.459145,50.493031
1.752e-008,-94.093254,66.407051
1.753e-008,-93.754066,82.346184
1.754e-008,-93.439857,98.308159
1.755e-008,-93.149139,114.29055
1.756e-008,-92.880562,130.29152
1.757e-008,-92.632942,146.30927
1.758e-008,-92.405212,162.34238
1.759e-008,-92.196457,178.38937
1.76e-008,-92.005783,-165.55115
1.761e-008,-91.832436,-149.48026
1.762e-008,-91.67569,-133.39911
1.763e-008,-91.534935,-117.3088
1.764e-008,-91.409569,-101.21028
1.765e-008,-91.299065,-85.104622
1.766e-008,-91.202911,-68.992683
1.767e-008,-91.120705,-52.875423
1.768e-008,-91.051994,-36.75383
1.769e-008,-90.996429,-20.6287
1.77e-008,-90.953644,-4.5009236
1.771e-008,-90.923355,11.62868
1.772e-008,-90.905243,27.759132
1.773e-008,-90.899063,43.889671
1.774e-008,-90.904594,60.019497
1.775e-008,-90.921616,76.147614
1.776e-008,-90.949944,92.273315
1.777e-008,-90.989418,108.39568
1.778e-008,-91.039902,124.51392
1.779e-008,-91.10128,140.62726
1.78e-008,-91.173477,156.73485
1.781e-008,-91.256424,172.83582
1.782e-008,-91.350067,-171.0705
1.783e-008,-91.45443,-154.98491
1.784e-008,-91.569496,-138.90819
1.785e-008,-91.695328,-122.84109
1.786e-008,-91.832016,-106.78424
1.787e-008,-91.97966,-90.738426
1.788e-008,-92.13842,-74.704193
1.789e-008,-92.308464,-58.682205
1.79e-008,-92.490051,-42.673042
1.791e-008,-92.683441,-26.677299
1.792e-008,-92.888954,-10.695424
1.793e-008,-93.106995,5.2720528
1.794e-008,-93.33802,21.224823
1.795e-008,-93.58255,37.162457
1.796e-008,-93.841179,53.084614
1.797e-008,-94.114601,68.990982
1.798e-008,-94.403656,84.881401
1.799e-008,-94.709229,100.75555
1.8e-008,-95.032387,116.61346
1.801e-008,-95.374359,132.4548
1.802e-008,-95.736572,148.27963
1.803e-008,-96.120689,164.0878
1.804e-008,-96.528618,179.87938
1.805e-008,-96.962601,-164.34589
1.806e-008,-97.425316,-148.58798
1.807e-008,-97.919876,-132.84702
1.808e-008,-98.450073,-117.12328
1.809e-008,-99.020485,-101.41713
1.81e-008,-99.636673,-85.729179
1.811e-008,-100.30558,-70.060303
1.812e-008,-101.03588,-54.412212
1.813e-008,-101.83879,-38.786804
1.814e-008,-102.72903,-23.187544
1.815e-008,-103.72635,-7.6200786
1.816e-008,-104.85839,7.9072299
1.817e-008,-106.16531,23.379206
1.818e-008,-107.70873,38.768463
1.819e-008,-109.59066,54.021748
1.82e-008,-111.99855,69.014046
1.821e-008,-115.33897,83.390549
1.822e-008,-120.80933,95.545593
1.823e-008,-136.14825,69.50499
1.824e-008,-123.01188,-36.185173
1.825e-008,-116.49093,-25.642654
1.826e-008,-112.81002,-11.582966
1.827e-008,-110.24421,3.2788093
1.828e-008,-108.2787,18.448198
1.829e-008,-106.6896,33.767639
1.83e-008,-105.35944,49.170906
1.831e-008,-104.21891,64.625801
1.832e-008,-103.22368,80.113892
1.833e-008,-102.34364,95.624779
1.834e-008,-101.55756,111.1516
1.835e-008,-100.84982,126.68968
1.836e-008,-100.2086,142.2359
1.837e-008,-99.624771,157.78714
1.838e-008,-99.091187,173.34171
1.839e-008,-98.602051,-171.10207
1.84e-008,-98.15271,-155.54608
1.841e-008,-97.739304,-139.99167
1.842e-008,-97.358635,-124.44034
1.843e-008,-97.008003,-108.89354
1.844e-008,-96.685127,-93.352791
1.845e-008,-96.388054,-77.819778
1.846e-008,-96.115082,-62.296101
1.847e-008,-95.864746,-46.783504
1.848e-008,-95.635765,-31.283974
1.849e-008,-95.42701,-15.799523
1.85e-008,-95.237457,-0.33257148
1.851e-008,-95.0662,15.114675
1.852e-008,-94.91243,30.539511
1.853e-008,-94.775375,45.939091
1.854e-008,-94.65432,61.310394
1.855e-008,-94.548569,76.650314
1.856e-008,-94.457527,91.955093
1.857e-008,-94.380524,107.22093
1.858e-008,-94.316948,122.44397
1.859e-008,-94.266136,137.61972
1.86e-008,-94.227432,152.74358
1.861e-008,-94.200142,167.81064
1.862e-008,-94.183479,-177.1842
1.863e-008,-94.176651,-162.24625
1.864e-008,-94.178703,-147.38127
1.865e-008,-94.188683,-132.59483
1.866e-008,-94.205414,-117.89259
1.867e-008,-94.227654,-103.28033
1.868e-008,-94.254005,-88.763496
1.869e-008,-94.28289,-74.347153
1.87e-008,-94.312531,-60.035465
1.871e-008,-94.341057,-45.832245
1.872e-008,-94.366302,-31.739525
1.873e-008,-94.386032,-17.758244
1.874e-008,-94.397873,-3.8868921
1.875e-008,-94.399323,9.8776169
1.876e-008,-94.387878,23.541391
1.877e-008,-94.361115,37.113159
1.878e-008,-94.316711,50.604431
1.879e-008,-94.252655,64.029442
1.88e-008,-94.167198,77.404961
1.881e-008,-94.05909,90.749794
1.882e-008,-93.927582,104.08414
1.883e-008,-93.772469,117.4286
1.884e-008,-93.594093,130.80388
1.885e-008,-93.393349,144.22939
1.886e-008,-93.1716,157.72301
1.887e-008,-92.930595,171.30031
1.888e-008,-92.672363,-175.0257
1.889e-008,-92.399147,-161.24487
1.89e-008,-92.113297,-147.34996
1.891e-008,-91.817131,-133.336
1.892e-008,-91.512932,-119.20078
1.893e-008,-91.202858,-104.94398
1.894e-008,-90.888908,-90.566879
1.895e-008,-90.572922,-76.07225
1.896e-008,-90.256546,-61.463779
1.897e-008,-89.941246,-46.746063
1.898e-008,-89.628304,-31.923983
1.899e-008,-89.318825,-17.002893
1.9e-008,-89.013771,-1.9880613
1.901e-008,-88.713959,13.115073
1.902e-008,-88.42009,28.301228
1.903e-008,-88.132751,43.565411
1.904e-008,-87.852425,58.902779
1.905e-008,-87.579536,74.308701
1.906e-008,-87.314415,89.778946
1.907e-008,-87.057335,105.30956
1.908e-008,-86.80854,120.89687
1.909e-008,-86.568199,136.53743
1.91e-008,-86.336464,152.2283
1.911e-008,-86.113457,167.96661
1.912e-008,-85.899254,-176.25014
1.913e-008,-85.693932,-160.42422
1.914e-008,-85.497536,-144.55765
1.915e-008,-85.310104,-128.65218
1.916e-008,-85.131653,-112.70933
1.917e-008,-84.962181,-96.730469
1.918e-008,-84.801682,-80.716728
1.919e-008,-84.650154,-64.669052
1.92e-008,-84.507568,-48.588203
1.921e-008,-84.373894,-32.474796
1.922e-008,-84.249084,-16.329254
1.923e-008,-84.13311,-0.15186156
1.924e-008,-84.025894,16.057219
1.925e-008,-83.927383,32.298096
1.926e-008,-83.837517,48.570774
1.927e-008,-83.756187,64.875572
1.928e-008,-83.683319,81.212883
1.929e-008,-83.618805,97.583183
1.93e-008,-83.562531,113.98708
1.931e-008,-83.514359,130.42529
1.932e-008,-83.474144,146.89856
1.933e-008,-83.441727,163.40784
1.934e-008,-83.416924,179.95404
1.935e-008,-83.399544,-163.46181
1.936e-008,-83.389336,-146.83865
1.937e-008,-83.386078,-130.17535
1.938e-008,-83.389473,-113.47076
1.939e-008,-83.399223,-96.723778
1.94e-008,-83.415001,-79.933228
1.941e-008,-83.436424,-63.097984
1.942e-008,-83.463097,-46.217159
1.943e-008,-83.494576,-29.289686
1.944e-008,-83.530388,-12.314843
1.945e-008,-83.570023,4.7080517
1.946e-008,-83.612915,21.779366
1.947e-008,-83.658485,38.899261
1.948e-008,-83.706116,56.06765
1.949e-008,-83.75515,73.284027
1.95e-008,-83.804901,90.547508
1.951e-008,-83.854683,107.85673
1.952e-008,-83.90377,125.20995
1.953e-008,-83.951454,142.60477
1.954e-008,-83.997025,160.03833
1.955e-008,-84.039795,177.50716
1.956e-008,-84.079094,-164.99275
1.957e-008,-84.114326,-147.46596
1.958e-008,-84.14492,-129.91765
1.959e-008,-84.170403,-112.35333
1.96e-008,-84.190376,-94.779152
1.961e-008,-84.204521,-77.201294
1.962e-008,-84.212646,-59.62648
1.963e-008,-84.214645,-42.061443
1.964e-008,-84.210518,-24.512966
1.965e-008,-84.200409,-6.9877729
1.966e-008,-84.184509,10.507675
1.967e-008,-84.163155,27.967026
1.968e-008,-84.136742,45.384544
1.969e-008,-84.105751,62.754673
1.97e-008,-84.070732,80.072495
1.971e-008,-84.032257,97.333603
1.972e-008,-83.990967,114.53415
1.973e-008,-83.947495,131.67085
1.974e-008,-83.902489,148.74086
1.975e-008,-83.856628,165.74202
1.976e-008,-83.810516,-177.32747
1.977e-008,-83.764786,-160.4687
1.978e-008,-83.720024,-143.68269
1.979e-008,-83.676765,-126.9699
1.98e-008,-83.635551,-110.33045
1.981e-008,-83.596825,-93.764183
1.982e-008,-83.561028,-77.270752
1.983e-008,-83.528534,-60.849541
1.984e-008,-83.499687,-44.499767
1.985e-008,-83.474777,-28.220617
1.986e-008,-83.454071,-12.010936
1.987e-008,-83.437744,4.1303539
1.988e-008,-83.426003,20.204515
1.989e-008,-83.418961,36.212708
1.99e-008,-83.416725,52.156456
1.991e-008,-83.419357,68.036926
1.992e-008,-83.426903,83.855751
1.993e-008,-83.439354,99.614273
1.994e-008,-83.456711,115.31411
1.995e-008,-83.478935,130.95682
1.996e-008,-83.505966,146.5439
1.997e-008,-83.537727,162.0771
1.998e-008,-83.574135,177.55817
1.999e-008,-83.615105,-167.01118
2e-008,-83.660515,-151.62918
END

