!CSV A.01.01
!Keysight Technologies,N5227B,US58420762,A.13.80.08
!Date: Monday, November 20, 2023 16:28:48
!Source: Standard

BEGIN CH1_DATA
Time(s),S21(DB),S21(DEG)
1e-008,-114.56248,54.626472
1.001e-008,-114.54708,69.660553
1.002e-008,-114.57262,84.503265
1.003e-008,-114.63825,99.144653
1.004e-008,-114.74278,113.56939
1.005e-008,-114.88508,127.75708
1.006e-008,-115.06306,141.68178
1.007e-008,-115.27436,155.31706
1.008e-008,-115.51511,168.62793
1.009e-008,-115.78083,-178.41879
1.01e-008,-116.06458,-165.86157
1.011e-008,-116.35718,-153.735
1.012e-008,-116.64703,-142.06496
1.013e-008,-116.92036,-130.86496
1.014e-008,-117.16026,-120.12283
1.015e-008,-117.34937,-109.79186
1.016e-008,-117.47125,-99.789078
1.017e-008,-117.51312,-89.988121
1.018e-008,-117.46852,-80.245201
1.019e-008,-117.33849,-70.396004
1.02e-008,-117.132,-60.302517
1.021e-008,-116.86316,-49.848625
1.022e-008,-116.54866,-38.96587
1.023e-008,-116.20591,-27.618334
1.024e-008,-115.85077,-15.803746
1.025e-008,-115.49661,-3.5374763
1.026e-008,-115.15437,9.1451731
1.027e-008,-114.83159,22.212145
1.028e-008,-114.53484,35.624973
1.029e-008,-114.26819,49.347855
1.03e-008,-114.03485,63.348019
1.031e-008,-113.83691,77.601578
1.032e-008,-113.67612,92.077538
1.033e-008,-113.55322,106.76264
1.034e-008,-113.46915,121.6354
1.035e-008,-113.42437,136.68695
1.036e-008,-113.41951,151.9071
1.037e-008,-113.45477,167.29138
1.038e-008,-113.53043,-177.16461
1.039e-008,-113.64687,-161.45949
1.04e-008,-113.80444,-145.58936
1.041e-008,-114.00312,-129.54491
1.042e-008,-114.24358,-113.31552
1.043e-008,-114.52548,-96.884865
1.044e-008,-114.84843,-80.231842
1.045e-008,-115.21172,-63.331497
1.046e-008,-115.61407,-46.149155
1.047e-008,-116.05242,-28.646898
1.048e-008,-116.52316,-10.778248
1.049e-008,-117.01955,7.5044298
1.05e-008,-117.53232,26.254766
1.051e-008,-118.048,45.521099
1.052e-008,-118.54848,65.339035
1.053e-008,-119.01171,85.709282
1.054e-008,-119.41174,106.58928
1.055e-008,-119.72308,127.86811
1.056e-008,-119.92364,149.37329
1.057e-008,-120.00259,170.87555
1.058e-008,-119.96076,-167.86397
1.059e-008,-119.81197,-147.06639
1.06e-008,-119.57732,-126.88354
1.061e-008,-119.28165,-107.40382
1.062e-008,-118.94733,-88.659012
1.063e-008,-118.59332,-70.637054
1.064e-008,-118.23316,-53.295403
1.065e-008,-117.87621,-36.58601
1.066e-008,-117.52715,-20.454575
1.067e-008,-117.18764,-4.8473482
1.068e-008,-116.85721,10.287238
1.069e-008,-116.53396,25.000742
1.07e-008,-116.21476,39.340874
1.071e-008,-115.89581,53.35815
1.072e-008,-115.57352,67.102806
1.073e-008,-115.24468,80.624069
1.074e-008,-114.90645,93.975594
1.075e-008,-114.55724,107.21294
1.076e-008,-114.19659,120.3811
1.077e-008,-113.82478,133.53133
1.078e-008,-113.44334,146.70123
1.079e-008,-113.05481,159.93396
1.08e-008,-112.66194,173.25598
1.081e-008,-112.26838,-173.30661
1.082e-008,-111.87743,-159.73579
1.083e-008,-111.49282,-146.02219
1.084e-008,-111.1178,-132.15793
1.085e-008,-110.75546,-118.13975
1.086e-008,-110.40854,-103.96703
1.087e-008,-110.07978,-89.641907
1.088e-008,-109.77106,-75.16848
1.089e-008,-109.48421,-60.549995
1.09e-008,-109.22066,-45.792728
1.091e-008,-108.98202,-30.899828
1.092e-008,-108.76911,-15.875364
1.093e-008,-108.58294,-0.72486615
1.094e-008,-108.42431,14.549806
1.095e-008,-108.29401,29.948416
1.096e-008,-108.19239,45.467567
1.097e-008,-108.1201,61.108646
1.098e-008,-108.07764,76.873657
1.099e-008,-108.06535,92.764229
1.1e-008,-108.08372,108.78635
1.101e-008,-108.13284,124.94582
1.102e-008,-108.21285,141.2504
1.103e-008,-108.32401,157.71112
1.104e-008,-108.46635,174.33939
1.105e-008,-108.6392,-168.84659
1.106e-008,-108.84222,-151.83197
1.107e-008,-109.0741,-134.59126
1.108e-008,-109.3333,-117.1041
1.109e-008,-109.61744,-99.33725
1.11e-008,-109.92245,-81.265663
1.111e-008,-110.24359,-62.855068
1.112e-008,-110.57401,-44.073124
1.113e-008,-110.90469,-24.895912
1.114e-008,-111.22453,-5.3062792
1.115e-008,-111.52008,14.700377
1.116e-008,-111.77672,35.096436
1.117e-008,-111.97876,55.828381
1.118e-008,-112.11328,76.812157
1.119e-008,-112.17017,97.925179
1.12e-008,-112.14559,119.03588
1.121e-008,-112.04188,140.00264
1.122e-008,-111.86758,160.70366
1.123e-008,-111.63537,-178.95543
1.124e-008,-111.36008,-159.03647
1.125e-008,-111.05659,-139.57248
1.126e-008,-110.73831,-120.56411
1.127e-008,-110.41697,-102.00037
1.128e-008,-110.10158,-83.856491
1.129e-008,-109.79886,-66.102699
1.13e-008,-109.51423,-48.709538
1.131e-008,-109.25083,-31.646971
1.132e-008,-109.01129,-14.886695
1.133e-008,-108.79689,1.5944276
1.134e-008,-108.60806,17.818331
1.135e-008,-108.44494,33.803436
1.136e-008,-108.30715,49.565384
1.137e-008,-108.19386,65.116028
1.138e-008,-108.10435,80.467934
1.139e-008,-108.03698,95.630585
1.14e-008,-107.99072,110.61215
1.141e-008,-107.96382,125.42069
1.142e-008,-107.95466,140.06467
1.143e-008,-107.96124,154.55035
1.144e-008,-107.98198,168.88666
1.145e-008,-108.01483,-176.91821
1.146e-008,-108.05788,-162.85295
1.147e-008,-108.10927,-148.90781
1.148e-008,-108.16738,-135.06854
1.149e-008,-108.23064,-121.32148
1.15e-008,-108.29759,-107.65
1.151e-008,-108.36738,-94.037003
1.152e-008,-108.43947,-80.463989
1.153e-008,-108.51342,-66.911087
1.154e-008,-108.58964,-53.359558
1.155e-008,-108.66872,-39.788563
1.156e-008,-108.75178,-26.180214
1.157e-008,-108.84017,-12.515015
1.158e-008,-108.93596,1.2230848
1.159e-008,-109.04105,15.050136
1.16e-008,-109.15795,28.980886
1.161e-008,-109.28908,43.028553
1.162e-008,-109.43729,57.204758
1.163e-008,-109.6051,71.521637
1.164e-008,-109.79556,85.990112
1.165e-008,-110.01134,100.62254
1.166e-008,-110.2551,115.4312
1.167e-008,-110.52966,130.42952
1.168e-008,-110.8376,145.63567
1.169e-008,-111.18127,161.07033
1.17e-008,-111.56302,176.75786
1.171e-008,-111.98417,-167.26967
1.172e-008,-112.44634,-150.97406
1.173e-008,-112.94913,-134.30434
1.174e-008,-113.49121,-117.20368
1.175e-008,-114.0683,-99.601204
1.176e-008,-114.67268,-81.413368
1.177e-008,-115.29041,-62.552723
1.178e-008,-115.90125,-42.942566
1.179e-008,-116.47529,-22.532156
1.18e-008,-116.97532,-1.3385508
1.181e-008,-117.35902,20.516811
1.182e-008,-117.59,42.781044
1.183e-008,-117.64793,65.09655
1.184e-008,-117.53645,87.07489
1.185e-008,-117.28207,108.3856
1.186e-008,-116.92338,128.81812
1.187e-008,-116.50038,148.28369
1.188e-008,-116.04697,166.78931
1.189e-008,-115.58714,-175.61134
1.19e-008,-115.13706,-158.84016
1.191e-008,-114.70448,-142.81526
1.192e-008,-114.29258,-127.46246
1.193e-008,-113.8999,-112.71648
1.194e-008,-113.52271,-98.514282
1.195e-008,-113.15497,-84.799088
1.196e-008,-112.78972,-71.510269
1.197e-008,-112.41995,-58.58849
1.198e-008,-112.03909,-45.96698
1.199e-008,-111.64128,-33.573902
1.2e-008,-111.22253,-21.334173
1.201e-008,-110.78136,-9.1734629
1.202e-008,-110.31796,2.9807634
1.203e-008,-109.83493,15.19316
1.204e-008,-109.3364,27.518759
1.205e-008,-108.82758,39.999828
1.206e-008,-108.31441,52.667786
1.207e-008,-107.80289,65.541954
1.208e-008,-107.29879,78.631927
1.209e-008,-106.8072,91.940254
1.21e-008,-106.33282,105.46304
1.211e-008,-105.87961,119.19328
1.212e-008,-105.45084,133.12206
1.213e-008,-105.04913,147.23822
1.214e-008,-104.67694,161.53098
1.215e-008,-104.33588,175.99008
1.216e-008,-104.02757,-169.39386
1.217e-008,-103.75315,-154.62933
1.218e-008,-103.51392,-139.72336
1.219e-008,-103.31071,-124.68188
1.22e-008,-103.14443,-109.50762
1.221e-008,-103.01587,-94.204247
1.222e-008,-102.92601,-78.771431
1.223e-008,-102.87551,-63.207111
1.224e-008,-102.8653,-47.507904
1.225e-008,-102.89628,-31.667036
1.226e-008,-102.96937,-15.67544
1.227e-008,-103.08545,0.48009551
1.228e-008,-103.24529,16.815907
1.229e-008,-103.44953,33.353046
1.23e-008,-103.69883,50.119061
1.231e-008,-103.99289,67.147179
1.232e-008,-104.33098,84.477859
1.233e-008,-104.71107,102.16128
1.234e-008,-105.12933,120.25541
1.235e-008,-105.57902,138.82614
1.236e-008,-106.04962,157.94411
1.237e-008,-106.52541,177.67493
1.238e-008,-106.98453,-161.93295
1.239e-008,-107.39841,-140.87337
1.24e-008,-107.7345,-119.21131
1.241e-008,-107.96076,-97.099716
1.242e-008,-108.05418,-74.788857
1.243e-008,-108.00655,-52.583122
1.244e-008,-107.82872,-30.7861
1.245e-008,-107.54619,-9.6399069
1.246e-008,-107.19171,10.707785
1.247e-008,-106.7981,30.193626
1.248e-008,-106.39285,48.817177
1.249e-008,-105.99684,66.616028
1.25e-008,-105.62457,83.637787
1.251e-008,-105.28473,99.931778
1.252e-008,-104.98163,115.53794
1.253e-008,-104.71582,130.48523
1.254e-008,-104.48502,144.7943
1.255e-008,-104.28419,158.47636
1.256e-008,-104.10572,171.53841
1.257e-008,-103.93952,-176.01086
1.258e-008,-103.77359,-164.15521
1.259e-008,-103.59396,-152.86444
1.26e-008,-103.38644,-142.08603
1.261e-008,-103.13744,-131.74292
1.262e-008,-102.83655,-121.73232
1.263e-008,-102.47761,-111.93674
1.264e-008,-102.06015,-102.23226
1.265e-008,-101.58922,-92.506523
1.266e-008,-101.0742,-82.670715
1.267e-008,-100.52718,-72.665703
1.268e-008,-99.960968,-62.464859
1.269e-008,-99.387527,-52.069386
1.27e-008,-98.817062,-41.502735
1.271e-008,-98.257462,-30.804792
1.272e-008,-97.714027,-20.025818
1.273e-008,-97.189461,-9.221509
1.274e-008,-96.683952,1.5491984
1.275e-008,-96.195152,12.22837
1.276e-008,-95.718102,22.761591
1.277e-008,-95.245407,33.102367
1.278e-008,-94.767166,43.21648
1.279e-008,-94.2714,53.087818
1.28e-008,-93.744797,62.724087
1.281e-008,-93.173897,72.1623
1.282e-008,-92.546844,81.468895
1.283e-008,-91.855118,90.736282
1.284e-008,-91.095047,100.07298
1.285e-008,-90.26841,109.58976
1.286e-008,-89.381973,119.38492
1.287e-008,-88.446213,129.53462
1.288e-008,-87.473465,140.08792
1.289e-008,-86.476395,151.06729
1.29e-008,-85.466675,162.47324
1.291e-008,-84.454376,174.29048
1.292e-008,-83.447647,-173.50658
1.293e-008,-82.45285,-160.94865
1.294e-008,-81.474678,-148.06863
1.295e-008,-80.516487,-134.89883
1.296e-008,-79.580551,-121.46987
1.297e-008,-78.668327,-107.80989
1.298e-008,-77.780632,-93.944252
1.299e-008,-76.917816,-79.895607
1.3e-008,-76.07991,-65.683998
1.301e-008,-75.266701,-51.327049
1.302e-008,-74.477806,-36.840267
1.303e-008,-73.71273,-22.237234
1.304e-008,-72.970932,-7.5298901
1.305e-008,-72.251793,7.2713113
1.306e-008,-71.55471,22.157127
1.307e-008,-70.879051,37.119469
1.308e-008,-70.224197,52.151154
1.309e-008,-69.589554,67.245857
1.31e-008,-68.974525,82.397934
1.311e-008,-68.378555,97.602394
1.312e-008,-67.801094,112.85477
1.313e-008,-67.241631,128.15108
1.314e-008,-66.699669,143.48773
1.315e-008,-66.174736,158.86153
1.316e-008,-65.666397,174.26959
1.317e-008,-65.174225,-170.29071
1.318e-008,-64.697823,-154.82173
1.319e-008,-64.236809,-139.32561
1.32e-008,-63.790833,-123.80428
1.321e-008,-63.359543,-108.25956
1.322e-008,-62.942631,-92.693024
1.323e-008,-62.539791,-77.106178
1.324e-008,-62.150734,-61.500378
1.325e-008,-61.775192,-45.876865
1.326e-008,-61.41291,-30.236794
1.327e-008,-61.063648,-14.58122
1.328e-008,-60.727173,1.0888656
1.329e-008,-60.403275,16.772572
1.33e-008,-60.091747,32.469048
1.331e-008,-59.792397,48.177517
1.332e-008,-59.505047,63.897255
1.333e-008,-59.229519,79.627563
1.334e-008,-58.96566,95.367836
1.335e-008,-58.71331,111.11747
1.336e-008,-58.472332,126.8759
1.337e-008,-58.242588,142.64261
1.338e-008,-58.023952,158.41713
1.339e-008,-57.816307,174.19896
1.34e-008,-57.619541,-170.01231
1.341e-008,-57.433548,-154.2171
1.342e-008,-57.258232,-138.41582
1.343e-008,-57.093502,-122.60883
1.344e-008,-56.939274,-106.79645
1.345e-008,-56.795471,-90.979065
1.346e-008,-56.662022,-75.156975
1.347e-008,-56.53886,-59.330494
1.348e-008,-56.425926,-43.49992
1.349e-008,-56.323162,-27.665529
1.35e-008,-56.230522,-11.827608
1.351e-008,-56.147961,4.0135889
1.352e-008,-56.075439,19.857798
1.353e-008,-56.012924,35.704784
1.354e-008,-55.960392,51.554287
1.355e-008,-55.917816,67.406082
1.356e-008,-55.885174,83.259926
1.357e-008,-55.862461,99.115616
1.358e-008,-55.849667,114.9729
1.359e-008,-55.846783,130.83159
1.36e-008,-55.853813,146.69144
1.361e-008,-55.87077,162.55225
1.362e-008,-55.897659,178.4138
1.363e-008,-55.934502,-165.72412
1.364e-008,-55.981319,-149.86171
1.365e-008,-56.038136,-133.99922
1.366e-008,-56.104988,-118.13683
1.367e-008,-56.181911,-102.27477
1.368e-008,-56.268951,-86.413254
1.369e-008,-56.366158,-70.552528
1.37e-008,-56.473583,-54.692802
1.371e-008,-56.59129,-38.834309
1.372e-008,-56.719349,-22.977285
1.373e-008,-56.857834,-7.1219835
1.374e-008,-57.006821,8.731349
1.375e-008,-57.166405,24.582453
1.376e-008,-57.336674,40.431061
1.377e-008,-57.517731,56.27689
1.378e-008,-57.709694,72.119652
1.379e-008,-57.912682,87.959053
1.38e-008,-58.126812,103.79477
1.381e-008,-58.352234,119.62646
1.382e-008,-58.589092,135.4538
1.383e-008,-58.83754,151.27643
1.384e-008,-59.097752,167.09393
1.385e-008,-59.369907,-177.09409
1.386e-008,-59.654202,-161.28806
1.387e-008,-59.950844,-145.4884
1.388e-008,-60.260052,-129.69565
1.389e-008,-60.582069,-113.91029
1.39e-008,-60.917149,-98.132881
1.391e-008,-61.265568,-82.364014
1.392e-008,-61.627621,-66.604324
1.393e-008,-62.003624,-50.854477
1.394e-008,-62.393917,-35.115208
1.395e-008,-62.79887,-19.3873
1.396e-008,-63.218876,-3.6715989
1.397e-008,-63.654369,12.030971
1.398e-008,-64.105804,27.719418
1.399e-008,-64.5737,43.392647
1.4e-008,-65.058586,59.049484
1.401e-008,-65.561066,74.688629
1.402e-008,-66.081795,90.308662
1.403e-008,-66.62149,105.908
1.404e-008,-67.180939,121.48493
1.405e-008,-67.760994,137.03752
1.406e-008,-68.362633,152.56361
1.407e-008,-68.986916,168.06084
1.408e-008,-69.635033,-176.47353
1.409e-008,-70.308334,-161.04251
1.41e-008,-71.008324,-145.64963
1.411e-008,-71.736717,-130.29886
1.412e-008,-72.495468,-114.99484
1.413e-008,-73.286842,-99.74295
1.414e-008,-74.113449,-84.549553
1.415e-008,-74.978333,-69.422264
1.416e-008,-75.885109,-54.370323
1.417e-008,-76.838074,-39.405003
1.418e-008,-77.8424,-24.540522
1.419e-008,-78.904434,-9.7949734
1.42e-008,-80.032021,4.8079734
1.421e-008,-81.235062,19.236444
1.422e-008,-82.52623,33.446331
1.423e-008,-83.922127,47.374115
1.424e-008,-85.444946,60.924572
1.425e-008,-87.125069,73.947098
1.426e-008,-89.004898,86.188866
1.427e-008,-91.144112,97.192955
1.428e-008,-93.622673,106.05799
1.429e-008,-96.515091,110.84269
1.43e-008,-99.675552,107.35049
1.431e-008,-101.8482,90.833321
1.432e-008,-101.14324,72.066956
1.433e-008,-98.968948,65.793175
1.434e-008,-96.930939,68.853378
1.435e-008,-95.303444,76.470284
1.436e-008,-94.02491,86.34742
1.437e-008,-93.009727,97.436661
1.438e-008,-92.19162,109.22021
1.439e-008,-91.522644,121.4215
1.44e-008,-90.967964,133.88289
1.441e-008,-90.501717,146.51161
1.442e-008,-90.104286,159.2523
1.443e-008,-89.760452,172.07294
1.444e-008,-89.458313,-175.04332
1.445e-008,-89.188484,-162.10295
1.446e-008,-88.943626,-149.1055
1.447e-008,-88.71801,-136.0457
1.448e-008,-88.507347,-122.91573
1.449e-008,-88.308464,-109.7058
1.45e-008,-88.119186,-96.406166
1.451e-008,-87.938141,-83.007088
1.452e-008,-87.764626,-69.500351
1.453e-008,-87.598434,-55.87883
1.454e-008,-87.439743,-42.137344
1.455e-008,-87.288994,-28.272425
1.456e-008,-87.146828,-14.282438
1.457e-008,-87.013954,-0.16727555
1.458e-008,-86.891174,14.071542
1.459e-008,-86.779213,28.431475
1.46e-008,-86.67881,42.908669
1.461e-008,-86.590652,57.498547
1.462e-008,-86.515335,72.195961
1.463e-008,-86.4534,86.995163
1.464e-008,-86.405327,101.89002
1.465e-008,-86.371513,116.87424
1.466e-008,-86.352333,131.94127
1.467e-008,-86.348091,147.08463
1.468e-008,-86.359047,162.29744
1.469e-008,-86.385452,177.57306
1.47e-008,-86.427544,-167.09512
1.471e-008,-86.485535,-151.7141
1.472e-008,-86.559654,-136.29065
1.473e-008,-86.650116,-120.83179
1.474e-008,-86.757202,-105.34437
1.475e-008,-86.881157,-89.835716
1.476e-008,-87.022316,-74.313232
1.477e-008,-87.181,-58.784626
1.478e-008,-87.35762,-43.25782
1.479e-008,-87.552628,-27.741453
1.48e-008,-87.766502,-12.244603
1.481e-008,-87.999817,3.2230201
1.482e-008,-88.253181,18.650759
1.483e-008,-88.52729,34.026886
1.484e-008,-88.822884,49.338367
1.485e-008,-89.140739,64.570381
1.486e-008,-89.481697,79.706627
1.487e-008,-89.846573,94.727646
1.488e-008,-90.236176,109.61153
1.489e-008,-90.651192,124.33245
1.49e-008,-91.09214,138.86037
1.491e-008,-91.559166,153.15968
1.492e-008,-92.051804,167.18849
1.493e-008,-92.568687,-179.10207
1.494e-008,-93.107117,-165.7688
1.495e-008,-93.66217,-152.87645
1.496e-008,-94.226021,-140.49568
1.497e-008,-94.786766,-128.69809
1.498e-008,-95.327271,-117.54758
1.499e-008,-95.824539,-107.08327
1.5e-008,-96.250214,-97.298233
1.501e-008,-96.573204,-88.113869
1.502e-008,-96.765495,-79.365707
1.503e-008,-96.808769,-70.812408
1.504e-008,-96.700272,-62.175541
1.505e-008,-96.453735,-53.195595
1.506e-008,-96.09494,-43.680489
1.507e-008,-95.654747,-33.523682
1.508e-008,-95.162865,-22.69652
1.509e-008,-94.644287,-11.225029
1.51e-008,-94.118126,0.83373272
1.511e-008,-93.5979,13.410702
1.512e-008,-93.09272,26.435423
1.513e-008,-92.608315,39.842579
1.514e-008,-92.148102,53.57439
1.515e-008,-91.713837,67.58107
1.516e-008,-91.306229,81.820763
1.517e-008,-90.925262,96.258202
1.518e-008,-90.570503,110.86372
1.519e-008,-90.241272,125.61291
1.52e-008,-89.936722,140.48526
1.521e-008,-89.655952,155.46349
1.522e-008,-89.398026,170.53319
1.523e-008,-89.162033,-174.31773
1.524e-008,-88.94706,-159.09947
1.525e-008,-88.752281,-143.82083
1.526e-008,-88.576859,-128.48918
1.527e-008,-88.420052,-113.11082
1.528e-008,-88.28112,-97.691086
1.529e-008,-88.159386,-82.234711
1.53e-008,-88.054207,-66.745674
1.531e-008,-87.964996,-51.227577
1.532e-008,-87.891159,-35.683414
1.533e-008,-87.832191,-20.11574
1.534e-008,-87.787552,-4.5271583
1.535e-008,-87.756752,11.080346
1.536e-008,-87.739349,26.704912
1.537e-008,-87.734886,42.3447
1.538e-008,-87.74292,57.99815
1.539e-008,-87.763039,73.663727
1.54e-008,-87.794823,89.340088
1.541e-008,-87.837868,105.02578
1.542e-008,-87.891777,120.7195
1.543e-008,-87.956161,136.41983
1.544e-008,-88.030624,152.1255
1.545e-008,-88.114761,167.83493
1.546e-008,-88.208176,-176.45316
1.547e-008,-88.310471,-160.74046
1.548e-008,-88.421211,-145.02853
1.549e-008,-88.540024,-129.31912
1.55e-008,-88.666435,-113.61417
1.551e-008,-88.800026,-97.915634
1.552e-008,-88.940338,-82.225655
1.553e-008,-89.086914,-66.546562
1.554e-008,-89.23925,-50.880714
1.555e-008,-89.396881,-35.230911
1.556e-008,-89.559242,-19.599747
1.557e-008,-89.725838,-3.9902978
1.558e-008,-89.896088,11.594523
1.559e-008,-90.069427,27.151354
1.56e-008,-90.245255,42.677029
1.561e-008,-90.422943,58.167976
1.562e-008,-90.601852,73.620903
1.563e-008,-90.781311,89.032349
1.564e-008,-90.960617,104.39891
1.565e-008,-91.139099,119.71726
1.566e-008,-91.315979,134.98442
1.567e-008,-91.49054,150.19737
1.568e-008,-91.66201,165.35368
1.569e-008,-91.829636,-179.54893
1.57e-008,-91.99263,-164.51205
1.571e-008,-92.150261,-149.5369
1.572e-008,-92.301765,-134.62387
1.573e-008,-92.446465,-119.77275
1.574e-008,-92.583649,-104.98267
1.575e-008,-92.712784,-90.251945
1.576e-008,-92.833298,-75.577866
1.577e-008,-92.944771,-60.957535
1.578e-008,-93.046898,-46.386658
1.579e-008,-93.139481,-31.860661
1.58e-008,-93.222496,-17.374496
1.581e-008,-93.296028,-2.9223893
1.582e-008,-93.360329,11.501481
1.583e-008,-93.415794,25.903257
1.584e-008,-93.463043,40.28896
1.585e-008,-93.502777,54.664528
1.586e-008,-93.53582,69.035461
1.587e-008,-93.563217,83.407036
1.588e-008,-93.586021,97.783684
1.589e-008,-93.605431,112.16969
1.59e-008,-93.622688,126.5682
1.591e-008,-93.639137,140.98169
1.592e-008,-93.65609,155.41229
1.593e-008,-93.67495,169.86108
1.594e-008,-93.69709,-175.67178
1.595e-008,-93.723862,-161.18629
1.596e-008,-93.756691,-146.68362
1.597e-008,-93.796928,-132.16542
1.598e-008,-93.845894,-117.63371
1.599e-008,-93.904938,-103.09158
1.6e-008,-93.97538,-88.542137
1.601e-008,-94.058525,-73.989799
1.602e-008,-94.15567,-59.438801
1.603e-008,-94.26815,-44.894703
1.604e-008,-94.397247,-30.363401
1.605e-008,-94.544289,-15.851785
1.606e-008,-94.710686,-1.3669083
1.607e-008,-94.89785,13.081612
1.608e-008,-95.107185,27.484232
1.609e-008,-95.340233,41.829346
1.61e-008,-95.598625,56.103661
1.611e-008,-95.883942,70.29142
1.612e-008,-96.197968,84.374046
1.613e-008,-96.542412,98.329262
1.614e-008,-96.919128,112.13072
1.615e-008,-97.329727,125.74583
1.616e-008,-97.775909,139.13548
1.617e-008,-98.258636,152.25064
1.618e-008,-98.778366,165.03273
1.619e-008,-99.334221,177.40742
1.62e-008,-99.922859,-170.71317
1.621e-008,-100.53759,-159.43558
1.622e-008,-101.16584,-148.87843
1.623e-008,-101.78664,-139.1646
1.624e-008,-102.36833,-130.39708
1.625e-008,-102.86668,-122.61255
1.626e-008,-103.22945,-115.72638
1.627e-008,-103.40626,-109.48109
1.628e-008,-103.36636,-103.46211
1.629e-008,-103.11095,-97.188606
1.63e-008,-102.67323,-90.256775
1.631e-008,-102.10409,-82.423569
1.632e-008,-101.4555,-73.61734
1.633e-008,-100.77033,-63.882427
1.634e-008,-100.07943,-53.324734
1.635e-008,-99.402649,-42.067429
1.636e-008,-98.751839,-30.22855
1.637e-008,-98.133415,-17.911947
1.638e-008,-97.550117,-5.2050571
1.639e-008,-97.002777,7.8201056
1.64e-008,-96.490807,21.105783
1.641e-008,-96.012878,34.604527
1.642e-008,-95.567368,48.278305
1.643e-008,-95.152443,62.095585
1.644e-008,-94.766281,76.030823
1.645e-008,-94.407051,90.062958
1.646e-008,-94.072937,104.1746
1.647e-008,-93.762291,118.35083
1.648e-008,-93.473457,132.57968
1.649e-008,-93.204979,146.85095
1.65e-008,-92.95536,161.15585
1.651e-008,-92.723244,175.48706
1.652e-008,-92.50737,-170.16145
1.653e-008,-92.30648,-155.79475
1.654e-008,-92.119415,-141.41713
1.655e-008,-91.945038,-127.03208
1.656e-008,-91.782295,-112.64212
1.657e-008,-91.630196,-98.249641
1.658e-008,-91.487747,-83.855804
1.659e-008,-91.354027,-69.461807
1.66e-008,-91.228165,-55.067886
1.661e-008,-91.109344,-40.674076
1.662e-008,-90.996803,-26.279871
1.663e-008,-90.889793,-11.8843
1.664e-008,-90.787682,2.5140193
1.665e-008,-90.68985,16.916559
1.666e-008,-90.595757,31.325327
1.667e-008,-90.504898,45.7425
1.668e-008,-90.416901,60.170471
1.669e-008,-90.331383,74.611816
1.67e-008,-90.248062,89.069145
1.671e-008,-90.16674,103.54533
1.672e-008,-90.08725,118.04298
1.673e-008,-90.009514,132.56479
1.674e-008,-89.933487,147.1134
1.675e-008,-89.859207,161.69139
1.676e-008,-89.786751,176.30106
1.677e-008,-89.716255,-169.05539
1.678e-008,-89.647873,-154.37613
1.679e-008,-89.581825,-139.6593
1.68e-008,-89.518341,-124.9036
1.681e-008,-89.457703,-110.10765
1.682e-008,-89.400169,-95.270523
1.683e-008,-89.346062,-80.391571
1.684e-008,-89.295692,-65.470352
1.685e-008,-89.249382,-50.506618
1.686e-008,-89.207458,-35.500351
1.687e-008,-89.170258,-20.451832
1.688e-008,-89.138092,-5.3614717
1.689e-008,-89.111298,9.7701101
1.69e-008,-89.090195,24.942083
1.691e-008,-89.075104,40.153625
1.692e-008,-89.066338,55.40358
1.693e-008,-89.064201,70.690796
1.694e-008,-89.068993,86.013977
1.695e-008,-89.081009,101.3718
1.696e-008,-89.100555,116.76271
1.697e-008,-89.127899,132.18517
1.698e-008,-89.163345,147.6377
1.699e-008,-89.207169,163.11861
1.7e-008,-89.259659,178.62621
1.701e-008,-89.321121,-165.84128
1.702e-008,-89.391823,-150.28548
1.703e-008,-89.472084,-134.70827
1.704e-008,-89.562195,-119.11147
1.705e-008,-89.662498,-103.49701
1.706e-008,-89.773308,-87.866676
1.707e-008,-89.894966,-72.22242
1.708e-008,-90.027847,-56.566261
1.709e-008,-90.17234,-40.900379
1.71e-008,-90.328842,-25.226641
1.711e-008,-90.497803,-9.5473814
1.712e-008,-90.67968,6.135118
1.713e-008,-90.874977,21.81838
1.714e-008,-91.084274,37.499947
1.715e-008,-91.308121,53.177017
1.716e-008,-91.54718,68.846672
1.717e-008,-91.802177,84.505646
1.718e-008,-92.073875,100.15038
1.719e-008,-92.363136,115.77701
1.72e-008,-92.670891,131.38092
1.721e-008,-92.998222,146.95718
1.722e-008,-93.346313,162.50008
1.723e-008,-93.716446,178.00281
1.724e-008,-94.110085,-166.54239
1.725e-008,-94.528908,-151.145
1.726e-008,-94.97477,-135.8159
1.727e-008,-95.449791,-120.56876
1.728e-008,-95.956306,-105.42017
1.729e-008,-96.497017,-90.390411
1.73e-008,-97.074951,-75.505341
1.731e-008,-97.693443,-60.797367
1.732e-008,-98.356194,-46.30827
1.733e-008,-99.067169,-32.092571
1.734e-008,-99.830322,-18.221443
1.735e-008,-100.64912,-4.7899146
1.736e-008,-101.52559,8.0750771
1.737e-008,-102.45826,20.204884
1.738e-008,-103.43837,31.377048
1.739e-008,-104.44324,41.316177
1.74e-008,-105.42554,49.718643
1.741e-008,-106.30146,56.352776
1.742e-008,-106.94985,61.265335
1.743e-008,-107.24455,65.029205
1.744e-008,-107.12392,68.71785
1.745e-008,-106.6354,73.449577
1.746e-008,-105.90011,79.876358
1.747e-008,-105.04283,88.106468
1.748e-008,-104.15282,97.931892
1.749e-008,-103.28143,109.05148
1.75e-008,-102.45388,121.18231
1.751e-008,-101.6801,134.09439
1.752e-008,-100.96216,147.61269
1.753e-008,-100.29805,161.60434
1.754e-008,-99.684151,175.9716
1.755e-008,-99.11631,-169.36093
1.756e-008,-98.590324,-154.44899
1.757e-008,-98.102211,-139.33629
1.758e-008,-97.648277,-124.05679
1.759e-008,-97.225288,-108.63681
1.76e-008,-96.830231,-93.097984
1.761e-008,-96.460526,-77.457268
1.762e-008,-96.113785,-61.728989
1.763e-008,-95.787903,-45.925007
1.764e-008,-95.481026,-30.055016
1.765e-008,-95.191444,-14.127473
1.766e-008,-94.917694,1.8502983
1.767e-008,-94.658386,17.871748
1.768e-008,-94.412346,33.931362
1.769e-008,-94.178452,50.02396
1.77e-008,-93.95578,66.145088
1.771e-008,-93.743446,82.290321
1.772e-008,-93.540642,98.455917
1.773e-008,-93.346733,114.63813
1.774e-008,-93.161072,130.83377
1.775e-008,-92.983147,147.03952
1.776e-008,-92.812485,163.25238
1.777e-008,-92.648697,179.46941
1.778e-008,-92.491447,-164.31195
1.779e-008,-92.340431,-148.09436
1.78e-008,-92.195442,-131.88029
1.781e-008,-92.056297,-115.67194
1.782e-008,-91.922859,-99.471519
1.783e-008,-91.795036,-83.281075
1.784e-008,-91.672768,-67.102592
1.785e-008,-91.556053,-50.937881
1.786e-008,-91.444923,-34.788536
1.787e-008,-91.339386,-18.656294
1.788e-008,-91.239548,-2.5425367
1.789e-008,-91.145538,13.551351
1.79e-008,-91.057426,29.624105
1.791e-008,-90.97541,45.67453
1.792e-008,-90.899635,61.701527
1.793e-008,-90.830299,77.704056
1.794e-008,-90.767593,93.681183
1.795e-008,-90.711739,109.63209
1.796e-008,-90.662956,125.5558
1.797e-008,-90.621506,141.45145
1.798e-008,-90.587624,157.31839
1.799e-008,-90.561584,173.15581
1.8e-008,-90.54364,-171.0372
1.801e-008,-90.534088,-155.26135
1.802e-008,-90.533226,-139.51756
1.803e-008,-90.541344,-123.80669
1.804e-008,-90.558739,-108.12979
1.805e-008,-90.585754,-92.48793
1.806e-008,-90.622688,-76.882271
1.807e-008,-90.669907,-61.31422
1.808e-008,-90.727737,-45.785244
1.809e-008,-90.796524,-30.297098
1.81e-008,-90.876671,-14.851663
1.811e-008,-90.968506,0.54891413
1.812e-008,-91.072433,15.90199
1.813e-008,-91.188828,31.204693
1.814e-008,-91.318108,46.454048
1.815e-008,-91.460655,61.646038
1.816e-008,-91.616875,76.776443
1.817e-008,-91.787148,91.840347
1.818e-008,-91.971909,106.83236
1.819e-008,-92.171471,121.74581
1.82e-008,-92.386208,136.57368
1.821e-008,-92.616356,151.30727
1.822e-008,-92.862198,165.93738
1.823e-008,-93.123802,-179.54724
1.824e-008,-93.401169,-165.15894
1.825e-008,-93.694077,-150.91154
1.826e-008,-94.002075,-136.82121
1.827e-008,-94.324341,-122.90569
1.828e-008,-94.659637,-109.18444
1.829e-008,-95.006081,-95.678932
1.83e-008,-95.36116,-82.412117
1.831e-008,-95.721306,-69.407204
1.832e-008,-96.081947,-56.686653
1.833e-008,-96.437126,-44.270641
1.834e-008,-96.779587,-32.173817
1.835e-008,-97.100639,-20.401962
1.836e-008,-97.390419,-8.9472952
1.837e-008,-97.63855,2.2144139
1.838e-008,-97.834778,13.127914
1.839e-008,-97.97036,23.857969
1.84e-008,-98.039055,34.488106
1.841e-008,-98.038307,45.112019
1.842e-008,-97.969398,55.825752
1.843e-008,-97.837677,66.716881
1.844e-008,-97.651299,77.858452
1.845e-008,-97.420303,89.302231
1.846e-008,-97.155365,101.08046
1.847e-008,-96.866852,113.20641
1.848e-008,-96.564171,125.67928
1.849e-008,-96.255318,138.48772
1.85e-008,-95.947044,151.61421
1.851e-008,-95.644531,165.03719
1.852e-008,-95.352013,178.73436
1.853e-008,-95.072609,-167.31685
1.854e-008,-94.808617,-153.13657
1.855e-008,-94.561821,-138.74414
1.856e-008,-94.33345,-124.15676
1.857e-008,-94.124321,-109.38932
1.858e-008,-93.935005,-94.454659
1.859e-008,-93.765869,-79.363838
1.86e-008,-93.617165,-64.12632
1.861e-008,-93.48896,-48.749123
1.862e-008,-93.381264,-33.23811
1.863e-008,-93.294067,-17.598042
1.864e-008,-93.227303,-1.8317884
1.865e-008,-93.180779,14.059107
1.866e-008,-93.154419,30.074259
1.867e-008,-93.148003,46.214134
1.868e-008,-93.161301,62.481056
1.869e-008,-93.194016,78.878075
1.87e-008,-93.245842,95.409836
1.871e-008,-93.316338,112.08208
1.872e-008,-93.404922,128.90166
1.873e-008,-93.510895,145.87711
1.874e-008,-93.633438,163.01752
1.875e-008,-93.771355,-179.66585
1.876e-008,-93.923119,-162.16135
1.877e-008,-94.086998,-144.45624
1.878e-008,-94.260628,-126.53712
1.879e-008,-94.4412,-108.39114
1.88e-008,-94.625099,-90.005165
1.881e-008,-94.808205,-71.369125
1.882e-008,-94.985542,-52.475464
1.883e-008,-95.151428,-33.32225
1.884e-008,-95.299553,-13.913824
1.885e-008,-95.423271,5.7364998
1.886e-008,-95.515968,25.604847
1.887e-008,-95.571465,45.656353
1.888e-008,-95.584511,65.845734
1.889e-008,-95.551582,86.119476
1.89e-008,-95.471046,106.41789
1.891e-008,-95.343384,126.68083
1.892e-008,-95.171265,146.85168
1.893e-008,-94.959068,166.88124
1.894e-008,-94.712418,-173.27013
1.895e-008,-94.437721,-153.6308
1.896e-008,-94.141418,-134.21794
1.897e-008,-93.829918,-115.03962
1.898e-008,-93.508972,-96.095978
1.899e-008,-93.183739,-77.381096
1.9e-008,-92.858536,-58.885227
1.901e-008,-92.536995,-40.59573
1.902e-008,-92.222107,-22.49894
1.903e-008,-91.916222,-4.580584
1.904e-008,-91.621155,13.173307
1.905e-008,-91.338318,30.776266
1.906e-008,-91.068817,48.240807
1.907e-008,-90.813393,65.578545
1.908e-008,-90.572617,82.800179
1.909e-008,-90.346878,99.914978
1.91e-008,-90.136444,116.93169
1.911e-008,-89.941422,133.85773
1.912e-008,-89.761902,150.69998
1.913e-008,-89.597885,167.46426
1.914e-008,-89.449348,-175.84436
1.915e-008,-89.316216,-159.22122
1.916e-008,-89.19841,-142.66255
1.917e-008,-89.09584,-126.1651
1.918e-008,-89.008415,-109.72605
1.919e-008,-88.936035,-93.343124
1.92e-008,-88.878593,-77.014397
1.921e-008,-88.836006,-60.7384
1.922e-008,-88.808189,-44.51424
1.923e-008,-88.795074,-28.341
1.924e-008,-88.796593,-12.218371
1.925e-008,-88.812683,3.8536053
1.926e-008,-88.843315,19.874619
1.927e-008,-88.888443,35.844116
1.928e-008,-88.948021,51.761204
1.929e-008,-89.022049,67.624504
1.93e-008,-89.110504,83.43248
1.931e-008,-89.213364,99.183151
1.932e-008,-89.330612,114.87434
1.933e-008,-89.462234,130.50345
1.934e-008,-89.608215,146.06726
1.935e-008,-89.768494,161.56255
1.936e-008,-89.943016,176.98549
1.937e-008,-90.131714,-167.66827
1.938e-008,-90.334435,-152.40338
1.939e-008,-90.551056,-137.22508
1.94e-008,-90.781319,-122.13902
1.941e-008,-91.02494,-107.15122
1.942e-008,-91.281525,-92.2687
1.943e-008,-91.550575,-77.498283
1.944e-008,-91.831444,-62.847748
1.945e-008,-92.12336,-48.324875
1.946e-008,-92.425308,-33.938038
1.947e-008,-92.736084,-19.695454
1.948e-008,-93.054253,-5.6052723
1.949e-008,-93.378067,8.3247833
1.95e-008,-93.705467,22.087906
1.951e-008,-94.034149,35.678516
1.952e-008,-94.361412,49.092949
1.953e-008,-94.684349,62.32999
1.954e-008,-94.999771,75.391899
1.955e-008,-95.30439,88.284477
1.956e-008,-95.59491,101.01822
1.957e-008,-95.868233,113.60806
1.958e-008,-96.121552,126.07408
1.959e-008,-96.352692,138.43988
1.96e-008,-96.560196,150.73305
1.961e-008,-96.743507,162.98296
1.962e-008,-96.903015,175.22003
1.963e-008,-97.040161,-172.52699
1.964e-008,-97.157158,-160.23174
1.965e-008,-97.257057,-147.87186
1.966e-008,-97.343544,-135.42949
1.967e-008,-97.42054,-122.89252
1.968e-008,-97.492302,-110.2541
1.969e-008,-97.563042,-97.512192
1.97e-008,-97.636917,-84.669998
1.971e-008,-97.717918,-71.734688
1.972e-008,-97.809784,-58.717438
1.973e-008,-97.915985,-45.632225
1.974e-008,-98.039772,-32.496914
1.975e-008,-98.184143,-19.331533
1.976e-008,-98.351814,-6.1598287
1.977e-008,-98.545311,6.9919882
1.978e-008,-98.766891,20.092812
1.979e-008,-99.018463,33.107742
1.98e-008,-99.301643,45.996368
1.981e-008,-99.617416,58.711399
1.982e-008,-99.965942,71.196831
1.983e-008,-100.34615,83.388084
1.984e-008,-100.75497,95.208939
1.985e-008,-101.18652,106.57312
1.986e-008,-101.63032,117.38564
1.987e-008,-102.07033,127.55134
1.988e-008,-102.48246,136.9906
1.989e-008,-102.83462,145.66522
1.99e-008,-103.08797,153.61775
1.991e-008,-103.20313,161.00177
1.992e-008,-103.14989,168.09085
1.993e-008,-102.91783,175.23514
1.994e-008,-102.51971,-177.21896
1.995e-008,-101.98706,-169.00861
1.996e-008,-101.35942,-159.99135
1.997e-008,-100.67512,-150.13416
1.998e-008,-99.965477,-139.47775
1.999e-008,-99.253502,-128.10246
2e-008,-98.554764,-116.10059
END

