!CSV A.01.01
!Keysight Technologies,N5227B,US58420762,A.13.80.08
!Date: Monday, November 20, 2023 16:31:55
!Source: Standard

BEGIN CH1_DATA
Time(s),S21(DB),S21(DEG)
1e-008,-113.55678,-54.531143
1.001e-008,-113.36132,-40.75552
1.002e-008,-113.18742,-26.878742
1.003e-008,-113.03701,-12.903721
1.004e-008,-112.91123,1.1685615
1.005e-008,-112.81191,15.337922
1.006e-008,-112.74028,29.59935
1.007e-008,-112.69822,43.951035
1.008e-008,-112.68694,58.392395
1.009e-008,-112.70842,72.916954
1.01e-008,-112.76414,87.525276
1.011e-008,-112.85597,102.21252
1.012e-008,-112.98632,116.97845
1.013e-008,-113.1569,131.82198
1.014e-008,-113.37074,146.74214
1.015e-008,-113.63042,161.73903
1.016e-008,-113.9399,176.81551
1.017e-008,-114.30295,-168.02621
1.018e-008,-114.72424,-152.77933
1.019e-008,-115.20993,-137.43562
1.02e-008,-115.76719,-121.98274
1.021e-008,-116.40494,-106.40177
1.022e-008,-117.13499,-90.664635
1.023e-008,-117.97188,-74.732811
1.024e-008,-118.93544,-58.536335
1.025e-008,-120.05296,-41.981419
1.026e-008,-121.36073,-24.894569
1.027e-008,-122.91422,-6.9837384
1.028e-008,-124.7898,12.340211
1.029e-008,-127.09444,34.285221
1.03e-008,-129.90829,61.723278
1.031e-008,-132.82173,100.88622
1.032e-008,-133.56334,153.51236
1.033e-008,-131.26398,-161.67278
1.034e-008,-128.5188,-131.06955
1.035e-008,-126.25301,-107.71888
1.036e-008,-124.45737,-87.762672
1.037e-008,-123.02421,-69.558716
1.038e-008,-121.86528,-52.381039
1.039e-008,-120.91994,-35.850155
1.04e-008,-120.14837,-19.774012
1.041e-008,-119.52029,-4.0294781
1.042e-008,-119.01688,11.439259
1.043e-008,-118.62125,26.680971
1.044e-008,-118.32335,41.704929
1.045e-008,-118.11499,56.527794
1.046e-008,-117.99022,71.140602
1.047e-008,-117.9435,85.536377
1.048e-008,-117.97266,99.687836
1.049e-008,-118.07388,113.56733
1.05e-008,-118.24556,127.13684
1.051e-008,-118.48424,140.34431
1.052e-008,-118.78678,153.11922
1.053e-008,-119.14829,165.38579
1.054e-008,-119.56017,177.03734
1.055e-008,-120.00872,-172.02939
1.056e-008,-120.47387,-161.93159
1.057e-008,-120.92396,-152.76801
1.058e-008,-121.31774,-144.57486
1.059e-008,-121.60354,-137.27637
1.06e-008,-121.73383,-130.65616
1.061e-008,-121.67534,-124.31611
1.062e-008,-121.42617,-117.8101
1.063e-008,-121.01352,-110.73379
1.064e-008,-120.48425,-102.83979
1.065e-008,-119.88858,-94.029449
1.066e-008,-119.26906,-84.338417
1.067e-008,-118.65762,-73.855469
1.068e-008,-118.07459,-62.703472
1.069e-008,-117.53384,-50.995255
1.07e-008,-117.04283,-38.84457
1.071e-008,-116.60463,-26.336487
1.072e-008,-116.22186,-13.553032
1.073e-008,-115.89426,-0.55630726
1.074e-008,-115.62193,12.593367
1.075e-008,-115.40318,25.855732
1.076e-008,-115.23724,39.17712
1.077e-008,-115.12343,52.527508
1.078e-008,-115.05998,65.865051
1.079e-008,-115.04558,79.156815
1.08e-008,-115.07911,92.365799
1.081e-008,-115.15842,105.45522
1.082e-008,-115.28152,118.38821
1.083e-008,-115.44605,131.12492
1.084e-008,-115.64723,143.62029
1.085e-008,-115.88123,155.83304
1.086e-008,-116.14095,167.71729
1.087e-008,-116.41781,179.22986
1.088e-008,-116.6999,-169.6626
1.089e-008,-116.97398,-158.97876
1.09e-008,-117.22433,-148.71667
1.091e-008,-117.432,-138.83731
1.092e-008,-117.58121,-129.26947
1.093e-008,-117.65973,-119.89291
1.094e-008,-117.6581,-110.56686
1.095e-008,-117.57774,-101.13369
1.096e-008,-117.42719,-91.44709
1.097e-008,-117.21975,-81.394836
1.098e-008,-116.9726,-70.894958
1.099e-008,-116.70406,-59.913513
1.1e-008,-116.43055,-48.442413
1.101e-008,-116.16785,-36.494171
1.102e-008,-115.92636,-24.098888
1.103e-008,-115.71693,-11.292562
1.104e-008,-115.5472,1.8900077
1.105e-008,-115.42283,15.418427
1.106e-008,-115.34991,29.257212
1.107e-008,-115.33219,43.394306
1.108e-008,-115.37442,57.802128
1.109e-008,-115.48198,72.477737
1.11e-008,-115.659,87.415512
1.111e-008,-115.91058,102.62418
1.112e-008,-116.24449,118.12114
1.113e-008,-116.6687,133.93805
1.114e-008,-117.19287,150.13281
1.115e-008,-117.8296,166.79735
1.116e-008,-118.59337,-175.94243
1.117e-008,-119.50077,-157.86531
1.118e-008,-120.56951,-138.63716
1.119e-008,-121.80733,-117.70247
1.12e-008,-123.18763,-94.182419
1.121e-008,-124.58237,-66.848213
1.122e-008,-125.64159,-34.731823
1.123e-008,-125.83222,0.73578125
1.124e-008,-124.97623,35.050674
1.125e-008,-123.50158,64.917007
1.126e-008,-121.89005,90.350365
1.127e-008,-120.3727,112.59409
1.128e-008,-119.01712,132.73503
1.129e-008,-117.82848,151.48817
1.13e-008,-116.79258,169.28996
1.131e-008,-115.89206,-173.5807
1.132e-008,-115.11092,-156.95273
1.133e-008,-114.43563,-140.71376
1.134e-008,-113.85487,-124.79078
1.135e-008,-113.36043,-109.13459
1.136e-008,-112.94398,-93.716965
1.137e-008,-112.60085,-78.517784
1.138e-008,-112.32538,-63.532295
1.139e-008,-112.11395,-48.760418
1.14e-008,-111.9634,-34.20644
1.141e-008,-111.86993,-19.886021
1.142e-008,-111.83111,-5.8207369
1.143e-008,-111.84396,7.96735
1.144e-008,-111.90433,21.442513
1.145e-008,-112.00806,34.568638
1.146e-008,-112.14912,47.300583
1.147e-008,-112.31976,59.591782
1.148e-008,-112.50971,71.393875
1.149e-008,-112.70481,82.667046
1.15e-008,-112.88771,93.385178
1.151e-008,-113.03802,103.55284
1.152e-008,-113.13239,113.217
1.153e-008,-113.14973,122.48028
1.154e-008,-113.0723,131.49582
1.155e-008,-112.89297,140.45453
1.156e-008,-112.61361,149.55765
1.157e-008,-112.24707,158.97902
1.158e-008,-111.81271,168.84557
1.159e-008,-111.33233,179.22658
1.16e-008,-110.82723,-169.8541
1.161e-008,-110.31587,-158.41173
1.162e-008,-109.81261,-146.48247
1.163e-008,-109.32877,-134.11447
1.164e-008,-108.87225,-121.35778
1.165e-008,-108.44866,-108.26252
1.166e-008,-108.0618,-94.871849
1.167e-008,-107.7142,-81.227913
1.168e-008,-107.40736,-67.363861
1.169e-008,-107.14253,-53.310532
1.17e-008,-106.92033,-39.093037
1.171e-008,-106.7414,-24.734943
1.172e-008,-106.60606,-10.25416
1.173e-008,-106.51491,4.3333297
1.174e-008,-106.46851,19.013494
1.175e-008,-106.46765,33.773945
1.176e-008,-106.5132,48.605473
1.177e-008,-106.60652,63.499229
1.178e-008,-106.74898,78.447403
1.179e-008,-106.94257,93.444595
1.18e-008,-107.18964,108.48485
1.181e-008,-107.49329,123.56512
1.182e-008,-107.85692,138.68149
1.183e-008,-108.28542,153.83276
1.184e-008,-108.78406,169.01869
1.185e-008,-109.36028,-175.7601
1.186e-008,-110.02293,-160.49739
1.187e-008,-110.78419,-145.18617
1.188e-008,-111.6592,-129.81328
1.189e-008,-112.66973,-114.35517
1.19e-008,-113.84542,-98.771042
1.191e-008,-115.22984,-82.992294
1.192e-008,-116.8905,-66.888481
1.193e-008,-118.93905,-50.189323
1.194e-008,-121.5789,-32.252941
1.195e-008,-125.23253,-11.159642
1.196e-008,-130.82468,21.685526
1.197e-008,-135.07854,105.49501
1.198e-008,-128.95284,166.21436
1.199e-008,-124.5581,-167.5679
1.2e-008,-121.7039,-148.45543
1.201e-008,-119.67243,-131.70689
1.202e-008,-118.14564,-116.08443
1.203e-008,-116.95952,-101.13478
1.204e-008,-116.02186,-86.668526
1.205e-008,-115.27374,-72.599258
1.206e-008,-114.6757,-58.889324
1.207e-008,-114.19833,-45.530033
1.208e-008,-113.81893,-32.520866
1.209e-008,-113.51797,-19.875416
1.21e-008,-113.27821,-7.6032677
1.211e-008,-113.08261,4.285728
1.212e-008,-112.91485,15.792072
1.213e-008,-112.75777,26.93203
1.214e-008,-112.59608,37.741863
1.215e-008,-112.41461,48.280048
1.216e-008,-112.20189,58.628246
1.217e-008,-111.94958,68.885811
1.218e-008,-111.65557,79.161949
1.219e-008,-111.32137,89.562668
1.22e-008,-110.95419,100.17801
1.221e-008,-110.56304,111.07835
1.222e-008,-110.16002,122.30622
1.223e-008,-109.75629,133.88481
1.224e-008,-109.36318,145.81622
1.225e-008,-108.99026,158.09026
1.226e-008,-108.64599,170.68588
1.227e-008,-108.33725,-176.41992
1.228e-008,-108.07003,-163.25737
1.229e-008,-107.84919,-149.85016
1.23e-008,-107.67956,-136.22519
1.231e-008,-107.5649,-122.40498
1.232e-008,-107.50939,-108.41131
1.233e-008,-107.51737,-94.262405
1.234e-008,-107.59364,-79.977249
1.235e-008,-107.74366,-65.565811
1.236e-008,-107.97411,-51.041355
1.237e-008,-108.29337,-36.412476
1.238e-008,-108.71211,-21.686565
1.239e-008,-109.2442,-6.863966
1.24e-008,-109.90828,8.0552378
1.241e-008,-110.73019,23.082588
1.242e-008,-111.74765,38.237186
1.243e-008,-113.01712,53.564369
1.244e-008,-114.63105,69.151833
1.245e-008,-116.75405,85.215179
1.246e-008,-119.72704,102.33251
1.247e-008,-124.44934,122.83927
1.248e-008,-134.36528,170.45241
1.249e-008,-129.09381,-63.77103
1.25e-008,-122.04115,-35.851028
1.251e-008,-118.16166,-17.400717
1.252e-008,-115.54061,-0.94614673
1.253e-008,-113.60347,14.732408
1.254e-008,-112.10621,30.001308
1.255e-008,-110.92439,44.998119
1.256e-008,-109.9869,59.776875
1.257e-008,-109.25065,74.353363
1.258e-008,-108.68851,88.720566
1.259e-008,-108.28351,102.85385
1.26e-008,-108.02593,116.71028
1.261e-008,-107.91132,130.22421
1.262e-008,-107.93896,143.30342
1.263e-008,-108.11121,155.81215
1.264e-008,-108.43201,167.55096
1.265e-008,-108.90256,178.22716
1.266e-008,-109.51382,-172.59151
1.267e-008,-110.2273,-165.51869
1.268e-008,-110.93674,-161.29131
1.269e-008,-111.41959,-160.38544
1.27e-008,-111.36337,-162.07846
1.271e-008,-110.58904,-163.96556
1.272e-008,-109.24576,-163.53932
1.273e-008,-107.64326,-159.91965
1.274e-008,-106.0125,-153.5201
1.275e-008,-104.46506,-145.08691
1.276e-008,-103.03994,-135.25792
1.277e-008,-101.74298,-124.49226
1.278e-008,-100.56757,-113.1087
1.279e-008,-99.50312,-101.33073
1.28e-008,-98.538216,-89.320007
1.281e-008,-97.661949,-77.198578
1.282e-008,-96.864006,-65.062134
1.283e-008,-96.134384,-52.990952
1.284e-008,-95.46312,-41.053085
1.285e-008,-94.83979,-29.307764
1.286e-008,-94.253181,-17.805481
1.287e-008,-93.690849,-6.5872502
1.288e-008,-93.138908,4.3201008
1.289e-008,-92.582275,14.908138
1.29e-008,-92.005142,25.192331
1.291e-008,-91.39209,35.216599
1.292e-008,-90.729698,45.054184
1.293e-008,-90.008202,54.803848
1.294e-008,-89.222984,64.57943
1.295e-008,-88.375092,74.496346
1.296e-008,-87.47068,84.657349
1.297e-008,-86.51973,95.141914
1.298e-008,-85.534203,106.00203
1.299e-008,-84.526367,117.26276
1.3e-008,-83.507645,128.92691
1.301e-008,-82.487823,140.98122
1.302e-008,-81.474854,153.40192
1.303e-008,-80.474876,166.15985
1.304e-008,-79.492424,179.22379
1.305e-008,-78.530716,-167.43732
1.306e-008,-77.591919,-153.85278
1.307e-008,-76.677383,-140.04959
1.308e-008,-75.787834,-126.05215
1.309e-008,-74.923553,-111.88216
1.31e-008,-74.084518,-97.5588
1.311e-008,-73.270447,-83.098984
1.312e-008,-72.480934,-68.517471
1.313e-008,-71.715431,-53.827274
1.314e-008,-70.973366,-39.039734
1.315e-008,-70.254105,-24.164812
1.316e-008,-69.556999,-9.2112579
1.317e-008,-68.881416,5.8132277
1.318e-008,-68.226723,20.901867
1.319e-008,-67.592285,36.048683
1.32e-008,-66.977516,51.248356
1.321e-008,-66.381836,66.496185
1.322e-008,-65.804695,81.787979
1.323e-008,-65.24556,97.119995
1.324e-008,-64.703941,112.4889
1.325e-008,-64.179359,127.89167
1.326e-008,-63.671368,143.32564
1.327e-008,-63.179535,158.78833
1.328e-008,-62.703461,174.27757
1.329e-008,-62.242756,-170.20862
1.33e-008,-61.797073,-154.67206
1.331e-008,-61.366058,-139.1144
1.332e-008,-60.949394,-123.53712
1.333e-008,-60.546776,-107.94164
1.334e-008,-60.157917,-92.329147
1.335e-008,-59.782543,-76.700836
1.336e-008,-59.420399,-61.057758
1.337e-008,-59.071243,-45.400898
1.338e-008,-58.734837,-29.731138
1.339e-008,-58.410976,-14.049317
1.34e-008,-58.099449,1.6437812
1.341e-008,-57.800064,17.347452
1.342e-008,-57.512638,33.061016
1.343e-008,-57.237003,48.783859
1.344e-008,-56.972992,64.515396
1.345e-008,-56.720451,80.255081
1.346e-008,-56.47924,96.002411
1.347e-008,-56.249226,111.75691
1.348e-008,-56.030273,127.51813
1.349e-008,-55.822269,143.28563
1.35e-008,-55.625095,159.05902
1.351e-008,-55.438656,174.83792
1.352e-008,-55.26284,-169.37802
1.353e-008,-55.097569,-153.58916
1.354e-008,-54.942753,-137.79579
1.355e-008,-54.798309,-121.99825
1.356e-008,-54.664169,-106.19683
1.357e-008,-54.540264,-90.3918
1.358e-008,-54.426533,-74.583443
1.359e-008,-54.322914,-58.772003
1.36e-008,-54.22937,-42.95776
1.361e-008,-54.145844,-27.140928
1.362e-008,-54.0723,-11.321759
1.363e-008,-54.008705,4.4995198
1.364e-008,-53.955029,20.322695
1.365e-008,-53.911236,36.147545
1.366e-008,-53.877323,51.973858
1.367e-008,-53.853264,67.801422
1.368e-008,-53.839054,83.630043
1.369e-008,-53.834679,99.459518
1.37e-008,-53.840149,115.28963
1.371e-008,-53.855457,131.12019
1.372e-008,-53.880623,146.95102
1.373e-008,-53.915657,162.78189
1.374e-008,-53.960575,178.61263
1.375e-008,-54.0154,-165.55699
1.376e-008,-54.080166,-149.72713
1.377e-008,-54.154903,-133.89803
1.378e-008,-54.239658,-118.06989
1.379e-008,-54.334465,-102.24289
1.38e-008,-54.439381,-86.41729
1.381e-008,-54.554462,-70.593277
1.382e-008,-54.679771,-54.771095
1.383e-008,-54.815372,-38.950977
1.384e-008,-54.961342,-23.133167
1.385e-008,-55.117764,-7.3179188
1.386e-008,-55.284721,8.4945097
1.387e-008,-55.462311,24.303839
1.388e-008,-55.650635,40.109764
1.389e-008,-55.8498,55.912003
1.39e-008,-56.059933,71.710213
1.391e-008,-56.281151,87.504059
1.392e-008,-56.513596,103.29317
1.393e-008,-56.757408,119.07716
1.394e-008,-57.012741,134.85562
1.395e-008,-57.279766,150.6281
1.396e-008,-57.558655,166.3941
1.397e-008,-57.849594,-177.84688
1.398e-008,-58.152794,-162.09538
1.399e-008,-58.468452,-146.35208
1.4e-008,-58.79681,-130.61757
1.401e-008,-59.138111,-114.89262
1.402e-008,-59.492603,-99.178009
1.403e-008,-59.860577,-83.474602
1.404e-008,-60.242317,-67.783379
1.405e-008,-60.638145,-52.105385
1.406e-008,-61.048401,-36.441799
1.407e-008,-61.473438,-20.793926
1.408e-008,-61.913643,-5.1632247
1.409e-008,-62.369431,10.448683
1.41e-008,-62.841236,26.039965
1.411e-008,-63.329533,41.608574
1.412e-008,-63.83482,57.152191
1.413e-008,-64.357635,72.66819
1.414e-008,-64.898567,88.153595
1.415e-008,-65.458206,103.60501
1.416e-008,-66.037224,119.01853
1.417e-008,-66.636314,134.38971
1.418e-008,-67.256226,149.71336
1.419e-008,-67.897728,164.98358
1.42e-008,-68.561653,-179.80661
1.421e-008,-69.248871,-164.66521
1.422e-008,-69.960266,-149.60167
1.423e-008,-70.696739,-134.62701
1.424e-008,-71.459206,-119.75431
1.425e-008,-72.248505,-104.99886
1.426e-008,-73.065414,-90.378838
1.427e-008,-73.910538,-75.915733
1.428e-008,-74.78418,-61.634876
1.429e-008,-75.686226,-47.566273
1.43e-008,-76.615906,-33.744896
1.431e-008,-77.571419,-20.211319
1.432e-008,-78.549561,-7.0115013
1.433e-008,-79.545143,5.8041115
1.434e-008,-80.55024,18.18317
1.435e-008,-81.553482,30.07683
1.436e-008,-82.539398,41.448418
1.437e-008,-83.488358,52.286678
1.438e-008,-84.377434,62.622276
1.439e-008,-85.182968,72.542702
1.44e-008,-85.884674,82.198547
1.441e-008,-86.470337,91.793442
1.442e-008,-86.939247,101.55437
1.443e-008,-87.30249,111.69454
1.444e-008,-87.58007,122.38121
1.445e-008,-87.796242,133.72147
1.446e-008,-87.975105,145.76604
1.447e-008,-88.137726,158.52371
1.448e-008,-88.300835,171.97768
1.449e-008,-88.4767,-173.89961
1.45e-008,-88.673492,-159.1368
1.451e-008,-88.895981,-143.75705
1.452e-008,-89.145889,-127.77563
1.453e-008,-89.422226,-111.1982
1.454e-008,-89.721458,-94.022125
1.455e-008,-90.037285,-76.238503
1.456e-008,-90.360466,-57.836601
1.457e-008,-90.678665,-38.810009
1.458e-008,-90.976501,-19.165394
1.459e-008,-91.236191,1.0669413
1.46e-008,-91.438919,21.823034
1.461e-008,-91.5672,42.999691
1.462e-008,-91.607841,64.455933
1.463e-008,-91.554512,86.027138
1.464e-008,-91.409019,107.54509
1.465e-008,-91.180656,128.862
1.466e-008,-90.884003,149.86613
1.467e-008,-90.536118,170.48901
1.468e-008,-90.153793,-169.29871
1.469e-008,-89.751976,-149.49571
1.47e-008,-89.342865,-130.07979
1.471e-008,-88.935837,-111.0172
1.472e-008,-88.537727,-92.269241
1.473e-008,-88.153221,-73.796455
1.474e-008,-87.785362,-55.561291
1.475e-008,-87.435905,-37.529472
1.476e-008,-87.105728,-19.670406
1.477e-008,-86.794975,-1.9572213
1.478e-008,-86.50338,15.633335
1.479e-008,-86.230301,33.121513
1.48e-008,-85.97496,50.52441
1.481e-008,-85.736351,67.856857
1.482e-008,-85.51342,85.131264
1.483e-008,-85.305115,102.35827
1.484e-008,-85.110283,119.54686
1.485e-008,-84.927841,136.70424
1.486e-008,-84.756714,153.83669
1.487e-008,-84.595863,170.9491
1.488e-008,-84.44429,-171.95462
1.489e-008,-84.301056,-154.87148
1.49e-008,-84.165268,-137.79919
1.491e-008,-84.036125,-120.73634
1.492e-008,-83.91288,-103.68208
1.493e-008,-83.794823,-86.636154
1.494e-008,-83.681389,-69.598808
1.495e-008,-83.572037,-52.570606
1.496e-008,-83.466331,-35.552608
1.497e-008,-83.363899,-18.54598
1.498e-008,-83.264442,-1.5522827
1.499e-008,-83.167755,15.426989
1.5e-008,-83.0737,32.390156
1.501e-008,-82.982201,49.335388
1.502e-008,-82.893242,66.261108
1.503e-008,-82.806885,83.165634
1.504e-008,-82.723236,100.04747
1.505e-008,-82.642448,116.90519
1.506e-008,-82.564705,133.73763
1.507e-008,-82.490242,150.54369
1.508e-008,-82.419319,167.3226
1.509e-008,-82.352203,-175.92636
1.51e-008,-82.289215,-159.20351
1.511e-008,-82.230644,-142.50914
1.512e-008,-82.176811,-125.84325
1.513e-008,-82.128021,-109.20565
1.514e-008,-82.084587,-92.596001
1.515e-008,-82.046822,-76.013733
1.516e-008,-82.015022,-59.458122
1.517e-008,-81.989471,-42.928375
1.518e-008,-81.970444,-26.423431
1.519e-008,-81.958183,-9.9421949
1.52e-008,-81.952957,6.5165963
1.521e-008,-81.954971,22.954233
1.522e-008,-81.964432,39.372208
1.523e-008,-81.981529,55.772045
1.524e-008,-82.006439,72.155327
1.525e-008,-82.039299,88.523766
1.526e-008,-82.080246,104.87911
1.527e-008,-82.129379,121.22322
1.528e-008,-82.186806,137.55795
1.529e-008,-82.252579,153.88525
1.53e-008,-82.326767,170.20717
1.531e-008,-82.409386,-173.47426
1.532e-008,-82.50045,-157.15675
1.533e-008,-82.599937,-140.83821
1.534e-008,-82.707817,-124.51637
1.535e-008,-82.824036,-108.18883
1.536e-008,-82.948509,-91.853165
1.537e-008,-83.081116,-75.506927
1.538e-008,-83.221733,-59.147549
1.539e-008,-83.370201,-42.772388
1.54e-008,-83.526306,-26.378805
1.541e-008,-83.689835,-9.9640923
1.542e-008,-83.860527,6.4745741
1.543e-008,-84.038071,22.940029
1.544e-008,-84.222145,39.435104
1.545e-008,-84.412354,55.962605
1.546e-008,-84.608284,72.525406
1.547e-008,-84.809448,89.12616
1.548e-008,-85.015343,105.76774
1.549e-008,-85.22538,122.45256
1.55e-008,-85.438934,139.18307
1.551e-008,-85.655342,155.96135
1.552e-008,-85.873871,172.78938
1.553e-008,-86.093727,-170.33136
1.554e-008,-86.31411,-153.39977
1.555e-008,-86.534149,-136.41524
1.556e-008,-86.752953,-119.37785
1.557e-008,-86.969604,-102.28806
1.558e-008,-87.183205,-85.14727
1.559e-008,-87.39283,-67.957634
1.56e-008,-87.597626,-50.72179
1.561e-008,-87.796745,-33.443569
1.562e-008,-87.989441,-16.12731
1.563e-008,-88.175034,1.221727
1.564e-008,-88.353004,18.597773
1.565e-008,-88.522903,35.994446
1.566e-008,-88.684464,53.404785
1.567e-008,-88.837563,70.821663
1.568e-008,-88.982285,88.237854
1.569e-008,-89.118797,105.64602
1.57e-008,-89.247536,123.0391
1.571e-008,-89.369003,140.41058
1.572e-008,-89.483887,157.75409
1.573e-008,-89.592979,175.06413
1.574e-008,-89.697182,-167.6642
1.575e-008,-89.797478,-150.43509
1.576e-008,-89.894936,-133.25165
1.577e-008,-89.990616,-116.11651
1.578e-008,-90.085655,-99.031433
1.579e-008,-90.181129,-81.997604
1.58e-008,-90.278175,-65.015083
1.581e-008,-90.377846,-48.083946
1.582e-008,-90.481255,-31.203138
1.583e-008,-90.589333,-14.37171
1.584e-008,-90.703125,2.4123135
1.585e-008,-90.823494,19.150816
1.586e-008,-90.951408,35.846111
1.587e-008,-91.087624,52.500572
1.588e-008,-91.232994,69.117157
1.589e-008,-91.388252,85.698425
1.59e-008,-91.554115,102.24751
1.591e-008,-91.731247,118.7674
1.592e-008,-91.920357,135.26118
1.593e-008,-92.122002,151.7323
1.594e-008,-92.336838,168.18355
1.595e-008,-92.565384,-175.38144
1.596e-008,-92.80825,-158.95932
1.597e-008,-93.065933,-142.54675
1.598e-008,-93.33902,-126.14022
1.599e-008,-93.627975,-109.73589
1.6e-008,-93.93335,-93.330093
1.601e-008,-94.255646,-76.918678
1.602e-008,-94.595459,-60.497765
1.603e-008,-94.953079,-44.062534
1.604e-008,-95.329216,-27.608503
1.605e-008,-95.724281,-11.130289
1.606e-008,-96.138763,5.3776784
1.607e-008,-96.573082,21.92135
1.608e-008,-97.027832,38.507854
1.609e-008,-97.503342,55.144978
1.61e-008,-98.000069,71.840126
1.611e-008,-98.518272,88.603798
1.612e-008,-99.058357,105.44579
1.613e-008,-99.620354,122.37866
1.614e-008,-100.2044,139.41554
1.615e-008,-100.81009,156.57198
1.616e-008,-101.43727,173.86458
1.617e-008,-102.08485,-168.68684
1.618e-008,-102.75189,-151.06216
1.619e-008,-103.43606,-133.23686
1.62e-008,-104.135,-115.18578
1.621e-008,-104.84486,-96.886238
1.622e-008,-105.5608,-78.309517
1.623e-008,-106.2763,-59.432972
1.624e-008,-106.98381,-40.238407
1.625e-008,-107.67357,-20.719772
1.626e-008,-108.33485,-0.87910652
1.627e-008,-108.95592,19.257927
1.628e-008,-109.52534,39.646992
1.629e-008,-110.03266,60.220215
1.63e-008,-110.47123,80.891083
1.631e-008,-110.83711,101.55826
1.632e-008,-111.13155,122.12369
1.633e-008,-111.35979,142.49519
1.634e-008,-111.52998,162.60045
1.635e-008,-111.65176,-177.61224
1.636e-008,-111.73639,-158.16512
1.637e-008,-111.79351,-139.06693
1.638e-008,-111.83182,-120.30792
1.639e-008,-111.85851,-101.86515
1.64e-008,-111.87935,-83.711708
1.641e-008,-111.89789,-65.815819
1.642e-008,-111.91719,-48.141491
1.643e-008,-111.93903,-30.661539
1.644e-008,-111.964,-13.33828
1.645e-008,-111.99213,3.8548863
1.646e-008,-112.02299,20.944952
1.647e-008,-112.05584,37.95549
1.648e-008,-112.08984,54.910748
1.649e-008,-112.1234,71.828583
1.65e-008,-112.15546,88.722519
1.651e-008,-112.18417,105.60133
1.652e-008,-112.20917,122.47993
1.653e-008,-112.22829,139.35741
1.654e-008,-112.24106,156.23312
1.655e-008,-112.24631,173.10446
1.656e-008,-112.24378,-170.03732
1.657e-008,-112.23327,-153.20203
1.658e-008,-112.21532,-136.40573
1.659e-008,-112.19024,-119.6666
1.66e-008,-112.15918,-103.00158
1.661e-008,-112.12391,-86.434402
1.662e-008,-112.08622,-69.98793
1.663e-008,-112.04798,-53.686562
1.664e-008,-112.01189,-37.557297
1.665e-008,-111.97986,-21.626053
1.666e-008,-111.95451,-5.9237337
1.667e-008,-111.93752,9.5203171
1.668e-008,-111.93062,24.670397
1.669e-008,-111.93449,39.490154
1.67e-008,-111.94882,53.940865
1.671e-008,-111.97157,67.975327
1.672e-008,-111.99923,81.54953
1.673e-008,-112.02493,94.617645
1.674e-008,-112.03949,107.13643
1.675e-008,-112.02916,119.07602
1.676e-008,-111.97747,130.43182
1.677e-008,-111.86454,141.23227
1.678e-008,-111.67063,151.55348
1.679e-008,-111.378,161.52693
1.68e-008,-110.97604,171.31955
1.681e-008,-110.46313,-178.87079
1.682e-008,-109.84754,-168.86618
1.683e-008,-109.1456,-158.51596
1.684e-008,-108.37752,-147.72552
1.685e-008,-107.56444,-136.4482
1.686e-008,-106.72554,-124.67928
1.687e-008,-105.87675,-112.43867
1.688e-008,-105.03042,-99.766945
1.689e-008,-104.19558,-86.709229
1.69e-008,-103.37864,-73.310143
1.691e-008,-102.58385,-59.613323
1.692e-008,-101.81393,-45.659004
1.693e-008,-101.07042,-31.48134
1.694e-008,-100.3541,-17.110884
1.695e-008,-99.665169,-2.5728889
1.696e-008,-99.003387,12.110019
1.697e-008,-98.368393,26.919104
1.698e-008,-97.759544,41.838535
1.699e-008,-97.176254,56.854786
1.7e-008,-96.617661,71.955887
1.701e-008,-96.083038,87.132347
1.702e-008,-95.571625,102.37552
1.703e-008,-95.082687,117.6784
1.704e-008,-94.615417,133.03461
1.705e-008,-94.169136,148.43881
1.706e-008,-93.743141,163.88647
1.707e-008,-93.336777,179.37373
1.708e-008,-92.949371,-165.10292
1.709e-008,-92.58033,-149.54639
1.71e-008,-92.229034,-133.95917
1.711e-008,-91.894951,-118.34342
1.712e-008,-91.577522,-102.70114
1.713e-008,-91.276222,-87.033875
1.714e-008,-90.990524,-71.342827
1.715e-008,-90.719955,-55.629482
1.716e-008,-90.46402,-39.894669
1.717e-008,-90.222267,-24.139086
1.718e-008,-89.99424,-8.3635521
1.719e-008,-89.77951,7.4314079
1.72e-008,-89.577606,23.245396
1.721e-008,-89.388115,39.078121
1.722e-008,-89.210617,54.929344
1.723e-008,-89.044685,70.798859
1.724e-008,-88.889908,86.686691
1.725e-008,-88.745842,102.59284
1.726e-008,-88.612091,118.51724
1.727e-008,-88.488243,134.46019
1.728e-008,-88.373848,150.42171
1.729e-008,-88.268517,166.40208
1.73e-008,-88.171791,-177.59859
1.731e-008,-88.083252,-161.58006
1.732e-008,-88.002472,-145.54196
1.733e-008,-87.929008,-129.48418
1.734e-008,-87.862404,-113.40647
1.735e-008,-87.802231,-97.308578
1.736e-008,-87.748009,-81.190361
1.737e-008,-87.699318,-65.05159
1.738e-008,-87.655655,-48.892326
1.739e-008,-87.61657,-32.71249
1.74e-008,-87.581627,-16.51207
1.741e-008,-87.550354,-0.2912035
1.742e-008,-87.522255,15.949767
1.743e-008,-87.49691,32.210583
1.744e-008,-87.473869,48.490818
1.745e-008,-87.452675,64.789902
1.746e-008,-87.432915,81.107193
1.747e-008,-87.414177,97.441757
1.748e-008,-87.396049,113.79286
1.749e-008,-87.378189,130.15918
1.75e-008,-87.360237,146.53976
1.751e-008,-87.341866,162.933
1.752e-008,-87.322784,179.33771
1.753e-008,-87.30275,-164.24774
1.754e-008,-87.28154,-147.825
1.755e-008,-87.258972,-131.39578
1.756e-008,-87.234894,-114.96175
1.757e-008,-87.209221,-98.524765
1.758e-008,-87.18187,-82.086586
1.759e-008,-87.152847,-65.649155
1.76e-008,-87.122162,-49.214073
1.761e-008,-87.089882,-32.783257
1.762e-008,-87.056099,-16.358191
1.763e-008,-87.020958,0.059392117
1.764e-008,-86.984634,16.468008
1.765e-008,-86.947311,32.866253
1.766e-008,-86.909233,49.252934
1.767e-008,-86.870644,65.626801
1.768e-008,-86.831825,81.986992
1.769e-008,-86.793083,98.332428
1.77e-008,-86.7547,114.66261
1.771e-008,-86.716995,130.97675
1.772e-008,-86.680313,147.27443
1.773e-008,-86.644951,163.5554
1.774e-008,-86.611282,179.81952
1.775e-008,-86.579582,-163.93355
1.776e-008,-86.550224,-147.70354
1.777e-008,-86.523483,-131.49051
1.778e-008,-86.49971,-115.29406
1.779e-008,-86.479179,-99.114006
1.78e-008,-86.462189,-82.949982
1.781e-008,-86.449005,-66.801491
1.782e-008,-86.439903,-50.668095
1.783e-008,-86.43512,-34.549183
1.784e-008,-86.434906,-18.444241
1.785e-008,-86.439461,-2.3526342
1.786e-008,-86.449013,13.726392
1.787e-008,-86.463707,29.793364
1.788e-008,-86.483742,45.849102
1.789e-008,-86.509262,61.894238
1.79e-008,-86.540405,77.929588
1.791e-008,-86.577278,93.955917
1.792e-008,-86.619995,109.97385
1.793e-008,-86.668617,125.98428
1.794e-008,-86.723251,141.98787
1.795e-008,-86.783913,157.98552
1.796e-008,-86.850639,173.97792
1.797e-008,-86.923447,-170.03406
1.798e-008,-87.002357,-154.04956
1.799e-008,-87.087318,-138.06784
1.8e-008,-87.178322,-122.08809
1.801e-008,-87.275284,-106.10939
1.802e-008,-87.378166,-90.130928
1.803e-008,-87.486885,-74.151726
1.804e-008,-87.601318,-58.170933
1.805e-008,-87.721367,-42.187634
1.806e-008,-87.846893,-26.200874
1.807e-008,-87.97776,-10.209614
1.808e-008,-88.113792,5.7870889
1.809e-008,-88.254822,21.79038
1.81e-008,-88.400658,37.801205
1.811e-008,-88.551109,53.820705
1.812e-008,-88.705948,69.850143
1.813e-008,-88.864967,85.89061
1.814e-008,-89.027946,101.94333
1.815e-008,-89.194633,118.00964
1.816e-008,-89.364792,134.09073
1.817e-008,-89.53817,150.18806
1.818e-008,-89.714539,166.30296
1.819e-008,-89.893654,-177.56311
1.82e-008,-90.075264,-161.40866
1.821e-008,-90.259155,-145.23219
1.822e-008,-90.445122,-129.03209
1.823e-008,-90.632942,-112.80681
1.824e-008,-90.822433,-96.55452
1.825e-008,-91.013466,-80.273476
1.826e-008,-91.205856,-63.961903
1.827e-008,-91.399521,-47.618015
1.828e-008,-91.594406,-31.239359
1.829e-008,-91.790443,-14.824158
1.83e-008,-91.98764,1.6298646
1.831e-008,-92.18605,18.125341
1.832e-008,-92.385735,34.665077
1.833e-008,-92.586838,51.251785
1.834e-008,-92.789551,67.888771
1.835e-008,-92.994041,84.579521
1.836e-008,-93.200615,101.32816
1.837e-008,-93.409538,118.13901
1.838e-008,-93.621147,135.01723
1.839e-008,-93.835754,151.96861
1.84e-008,-94.053764,168.9995
1.841e-008,-94.275505,-173.88281
1.842e-008,-94.501282,-156.66974
1.843e-008,-94.731331,-139.35181
1.844e-008,-94.965904,-121.9183
1.845e-008,-95.205009,-104.35696
1.846e-008,-95.448448,-86.653969
1.847e-008,-95.695839,-68.794151
1.848e-008,-95.946411,-50.760147
1.849e-008,-96.198944,-32.533882
1.85e-008,-96.451538,-14.095397
1.851e-008,-96.701714,4.5754442
1.852e-008,-96.946007,23.499369
1.853e-008,-97.179893,42.694317
1.854e-008,-97.397751,62.175835
1.855e-008,-97.592712,81.951752
1.856e-008,-97.757034,102.0223
1.857e-008,-97.881836,122.37319
1.858e-008,-97.958527,142.97546
1.859e-008,-97.978691,163.78261
1.86e-008,-97.935806,-175.26839
1.861e-008,-97.825706,-154.25374
1.862e-008,-97.647285,-133.25665
1.863e-008,-97.403015,-112.35812
1.864e-008,-97.098335,-91.632507
1.865e-008,-96.740936,-71.138824
1.866e-008,-96.33989,-50.91925
1.867e-008,-95.904617,-31.000036
1.868e-008,-95.444351,-11.38986
1.869e-008,-94.9673,7.9121065
1.87e-008,-94.480698,26.916899
1.871e-008,-93.990517,45.641068
1.872e-008,-93.501556,64.104332
1.873e-008,-93.01767,82.327492
1.874e-008,-92.541801,100.33139
1.875e-008,-92.076157,118.13613
1.876e-008,-91.622391,135.76097
1.877e-008,-91.181709,153.22299
1.878e-008,-90.754898,170.5379
1.879e-008,-90.342522,-172.28009
1.88e-008,-89.944954,-155.21812
1.881e-008,-89.56237,-138.26485
1.882e-008,-89.194809,-121.41047
1.883e-008,-88.842285,-104.64571
1.884e-008,-88.504684,-87.962791
1.885e-008,-88.181908,-71.354828
1.886e-008,-87.873772,-54.815331
1.887e-008,-87.580109,-38.338924
1.888e-008,-87.300743,-21.920635
1.889e-008,-87.035439,-5.5561504
1.89e-008,-86.784035,10.758539
1.891e-008,-86.54631,27.02669
1.892e-008,-86.322075,43.251534
1.893e-008,-86.111153,59.435692
1.894e-008,-85.913368,75.581711
1.895e-008,-85.728539,91.691711
1.896e-008,-85.556503,107.76749
1.897e-008,-85.397118,123.81081
1.898e-008,-85.250229,139.82314
1.899e-008,-85.115715,155.80583
1.9e-008,-84.993439,171.75993
1.901e-008,-84.883293,-172.31357
1.902e-008,-84.785179,-156.4138
1.903e-008,-84.698982,-140.54008
1.904e-008,-84.624634,-124.69188
1.905e-008,-84.562012,-108.86868
1.906e-008,-84.511101,-93.070198
1.907e-008,-84.471794,-77.296227
1.908e-008,-84.444061,-61.546631
1.909e-008,-84.427826,-45.821423
1.91e-008,-84.423073,-30.120705
1.911e-008,-84.429756,-14.444565
1.912e-008,-84.447845,1.2065003
1.913e-008,-84.477303,16.83222
1.914e-008,-84.51815,32.432011
1.915e-008,-84.57032,48.005333
1.916e-008,-84.633835,63.551407
1.917e-008,-84.708694,79.069313
1.918e-008,-84.794884,94.558189
1.919e-008,-84.892418,110.01685
1.92e-008,-85.001282,125.44413
1.921e-008,-85.121498,140.83862
1.922e-008,-85.253052,156.19879
1.923e-008,-85.395973,171.52303
1.924e-008,-85.55024,-173.19057
1.925e-008,-85.715851,-157.944
1.926e-008,-85.892799,-142.73943
1.927e-008,-86.08107,-127.5793
1.928e-008,-86.280632,-112.46625
1.929e-008,-86.49144,-97.402969
1.93e-008,-86.713425,-82.392677
1.931e-008,-86.946495,-67.438568
1.932e-008,-87.190567,-52.544258
1.933e-008,-87.445465,-37.713604
1.934e-008,-87.711021,-22.950687
1.935e-008,-87.987,-8.2598543
1.936e-008,-88.273117,6.3542838
1.937e-008,-88.569023,20.886587
1.938e-008,-88.874275,35.332146
1.939e-008,-89.1884,49.685383
1.94e-008,-89.510742,63.940777
1.941e-008,-89.840607,78.09259
1.942e-008,-90.177124,92.135254
1.943e-008,-90.519295,106.06275
1.944e-008,-90.865982,119.8698
1.945e-008,-91.215874,133.55118
1.946e-008,-91.567482,147.10254
1.947e-008,-91.919174,160.51974
1.948e-008,-92.269081,173.80035
1.949e-008,-92.615234,-173.05698
1.95e-008,-92.955605,-160.05208
1.951e-008,-93.287918,-147.18286
1.952e-008,-93.610008,-134.44466
1.953e-008,-93.919647,-121.83107
1.954e-008,-94.214836,-109.33314
1.955e-008,-94.493584,-96.939629
1.956e-008,-94.754333,-84.637291
1.957e-008,-94.995834,-72.411392
1.958e-008,-95.217186,-60.245983
1.959e-008,-95.417953,-48.124649
1.96e-008,-95.598129,-36.031475
1.961e-008,-95.758118,-23.950903
1.962e-008,-95.898689,-11.869583
1.963e-008,-96.020813,0.22460788
1.964e-008,-96.125801,12.341483
1.965e-008,-96.214981,24.487932
1.966e-008,-96.289673,36.66925
1.967e-008,-96.351181,48.88847
1.968e-008,-96.400696,61.146278
1.969e-008,-96.439201,73.442757
1.97e-008,-96.467422,85.776138
1.971e-008,-96.485985,98.144722
1.972e-008,-96.495178,110.5462
1.973e-008,-96.495079,122.97814
1.974e-008,-96.48558,135.4393
1.975e-008,-96.466461,147.929
1.976e-008,-96.437332,160.44748
1.977e-008,-96.397758,172.99619
1.978e-008,-96.347198,-174.42184
1.979e-008,-96.285332,-161.8028
1.98e-008,-96.211708,-149.14108
1.981e-008,-96.126122,-136.4305
1.982e-008,-96.028526,-123.66376
1.983e-008,-95.919029,-110.83321
1.984e-008,-95.797981,-97.930946
1.985e-008,-95.665909,-84.949097
1.986e-008,-95.523567,-71.880058
1.987e-008,-95.371826,-58.717258
1.988e-008,-95.211838,-45.454605
1.989e-008,-95.044724,-32.087025
1.99e-008,-94.871841,-18.610725
1.991e-008,-94.694458,-5.0230727
1.992e-008,-94.513947,8.6776133
1.993e-008,-94.331612,22.491766
1.994e-008,-94.148819,36.418892
1.995e-008,-93.966743,50.457539
1.996e-008,-93.786613,64.605835
1.997e-008,-93.609497,78.860954
1.998e-008,-93.436409,93.219551
1.999e-008,-93.268265,107.67801
2e-008,-93.105904,122.23247
END

