!CSV A.01.01
!Keysight Technologies,N5227B,US58420762,A.13.80.08
!Date: Monday, November 20, 2023 14:29:09
!Source: Standard

BEGIN CH1_DATA
Time(s),S21(DB),S21(DEG)
1e-008,-112.79269,-103.94781
1.001e-008,-112.73211,-93.146729
1.002e-008,-112.63593,-82.021904
1.003e-008,-112.51797,-70.521347
1.004e-008,-112.3928,-58.620224
1.005e-008,-112.2739,-46.312862
1.006e-008,-112.17344,-33.607697
1.007e-008,-112.10209,-20.524817
1.008e-008,-112.06841,-7.0823345
1.009e-008,-112.08087,6.6934566
1.01e-008,-112.14652,20.785843
1.011e-008,-112.27225,35.177368
1.012e-008,-112.46505,49.860165
1.013e-008,-112.73244,64.831558
1.014e-008,-113.08294,80.101898
1.015e-008,-113.52663,95.691795
1.016e-008,-114.07594,111.64338
1.017e-008,-114.74648,128.02626
1.018e-008,-115.5582,144.95615
1.019e-008,-116.53625,162.6214
1.02e-008,-117.71266,-178.65697
1.021e-008,-119.12256,-158.31065
1.022e-008,-120.78664,-135.30855
1.023e-008,-122.63593,-107.82549
1.024e-008,-124.27753,-73.439011
1.025e-008,-124.77409,-32.720695
1.026e-008,-123.63581,6.5084577
1.027e-008,-121.69799,38.5326
1.028e-008,-119.741,64.474518
1.029e-008,-118.01319,86.716331
1.03e-008,-116.53947,106.78998
1.031e-008,-115.29059,125.5421
1.032e-008,-114.23356,143.45111
1.033e-008,-113.33888,160.78998
1.034e-008,-112.58475,177.72525
1.035e-008,-111.95425,-165.63528
1.036e-008,-111.43494,-149.22374
1.037e-008,-111.01763,-132.99431
1.038e-008,-110.69596,-116.9185
1.039e-008,-110.46549,-100.97723
1.04e-008,-110.32398,-85.16008
1.041e-008,-110.27063,-69.46357
1.042e-008,-110.30653,-53.892143
1.043e-008,-110.43438,-38.454742
1.044e-008,-110.65919,-23.171942
1.045e-008,-110.98771,-8.0708494
1.046e-008,-111.43016,6.8022976
1.047e-008,-111.99995,21.378853
1.048e-008,-112.71608,35.556427
1.049e-008,-113.60361,49.167217
1.05e-008,-114.6964,61.933426
1.051e-008,-116.03741,73.367996
1.052e-008,-117.67183,82.559425
1.053e-008,-119.59799,87.757004
1.054e-008,-121.56232,85.961487
1.055e-008,-122.59516,75.413002
1.056e-008,-121.65064,63.698147
1.057e-008,-119.51144,60.174652
1.058e-008,-117.29477,64.255035
1.059e-008,-115.3518,72.780167
1.06e-008,-113.70769,83.77507
1.061e-008,-112.32025,96.208374
1.062e-008,-111.14465,109.53059
1.063e-008,-110.14479,123.432
1.064e-008,-109.29411,137.72409
1.065e-008,-108.57234,152.29128
1.066e-008,-107.96446,167.05281
1.067e-008,-107.45955,-178.04366
1.068e-008,-107.04955,-163.03882
1.069e-008,-106.72858,-147.96289
1.07e-008,-106.49279,-132.83978
1.071e-008,-106.33974,-117.68984
1.072e-008,-106.26862,-102.53178
1.073e-008,-106.27976,-87.38224
1.074e-008,-106.37513,-72.259109
1.075e-008,-106.55802,-57.183239
1.076e-008,-106.83344,-42.178135
1.077e-008,-107.20866,-27.273741
1.078e-008,-107.69327,-12.508876
1.079e-008,-108.30051,2.0610123
1.08e-008,-109.04823,16.357092
1.081e-008,-109.96063,30.25864
1.082e-008,-111.0712,43.567467
1.083e-008,-112.4258,55.94643
1.084e-008,-114.08577,66.770332
1.085e-008,-116.11779,74.784142
1.086e-008,-118.50994,77.380722
1.087e-008,-120.75403,70.126038
1.088e-008,-121.20562,53.741585
1.089e-008,-119.38557,42.808975
1.09e-008,-117.01787,42.812229
1.091e-008,-114.95048,49.486229
1.092e-008,-113.28314,59.592327
1.093e-008,-111.96156,71.553749
1.094e-008,-110.92657,84.599358
1.095e-008,-110.13449,98.322739
1.096e-008,-109.55696,112.49306
1.097e-008,-109.17829,126.97355
1.098e-008,-108.99333,141.67534
1.099e-008,-109.00723,156.5424
1.1e-008,-109.23664,171.53677
1.101e-008,-109.71406,-173.36342
1.102e-008,-110.49695,-158.16745
1.103e-008,-111.68749,-142.86227
1.104e-008,-113.48245,-127.39847
1.105e-008,-116.32757,-111.58654
1.106e-008,-121.62724,-94.470596
1.107e-008,-143.62646,-14.005647
1.108e-008,-121.04083,107.56607
1.109e-008,-114.44884,124.80626
1.11e-008,-110.45782,140.57895
1.111e-008,-107.54294,155.95953
1.112e-008,-105.23015,171.15369
1.113e-008,-103.30885,-173.77902
1.114e-008,-101.66677,-158.81723
1.115e-008,-100.23691,-143.95714
1.116e-008,-98.975891,-129.20267
1.117e-008,-97.853882,-114.56242
1.118e-008,-96.849594,-100.04807
1.119e-008,-95.946999,-85.675049
1.12e-008,-95.133621,-71.461418
1.121e-008,-94.399277,-57.428333
1.122e-008,-93.735359,-43.599743
1.123e-008,-93.133995,-30.003386
1.124e-008,-92.587631,-16.669525
1.125e-008,-92.088425,-3.631489
1.126e-008,-91.627846,9.0770149
1.127e-008,-91.196075,21.422394
1.128e-008,-90.781715,33.37566
1.129e-008,-90.371452,44.917152
1.13e-008,-89.950119,56.043381
1.131e-008,-89.501312,66.774323
1.132e-008,-89.008461,77.15995
1.133e-008,-88.456779,87.283371
1.134e-008,-87.835289,97.257378
1.135e-008,-87.138718,107.21353
1.136e-008,-86.368309,117.28607
1.137e-008,-85.531296,127.59471
1.138e-008,-84.639343,138.23181
1.139e-008,-83.706337,149.25691
1.14e-008,-82.746391,160.69817
1.141e-008,-81.772446,172.55804
1.142e-008,-80.795471,-175.17906
1.143e-008,-79.824242,-162.54007
1.144e-008,-78.865417,-149.55737
1.145e-008,-77.923866,-136.2652
1.146e-008,-77.002968,-122.69704
1.147e-008,-76.104958,-108.88413
1.148e-008,-75.231201,-94.854927
1.149e-008,-74.382408,-80.634842
1.15e-008,-73.55883,-66.246315
1.151e-008,-72.760406,-51.708988
1.152e-008,-71.986816,-37.040043
1.153e-008,-71.237602,-22.254377
1.154e-008,-70.512215,-7.3650179
1.155e-008,-69.810043,7.6167164
1.156e-008,-69.130424,22.680984
1.157e-008,-68.472717,37.819157
1.158e-008,-67.836258,53.023712
1.159e-008,-67.220413,68.288017
1.16e-008,-66.62455,83.606285
1.161e-008,-66.048073,98.973381
1.162e-008,-65.49041,114.38477
1.163e-008,-64.951019,129.83644
1.164e-008,-64.429367,145.3248
1.165e-008,-63.924969,160.84669
1.166e-008,-63.437351,176.39926
1.167e-008,-62.96608,-168.02003
1.168e-008,-62.510731,-152.4135
1.169e-008,-62.070908,-136.7832
1.17e-008,-61.646248,-121.13099
1.171e-008,-61.236393,-105.45855
1.172e-008,-60.841015,-89.767426
1.173e-008,-60.459801,-74.059013
1.174e-008,-60.092453,-58.334572
1.175e-008,-59.738697,-42.595264
1.176e-008,-59.39827,-26.842155
1.177e-008,-59.07093,-11.076225
1.178e-008,-58.756435,4.7016444
1.179e-008,-58.454571,20.490608
1.18e-008,-58.165134,36.289921
1.181e-008,-57.88792,52.098862
1.182e-008,-57.622757,67.916779
1.183e-008,-57.369465,83.743065
1.184e-008,-57.127884,99.577148
1.185e-008,-56.897861,115.4185
1.186e-008,-56.679253,131.26663
1.187e-008,-56.47192,147.12108
1.188e-008,-56.275742,162.98138
1.189e-008,-56.090599,178.84717
1.19e-008,-55.916378,-165.28197
1.191e-008,-55.752979,-149.40642
1.192e-008,-55.600304,-133.52649
1.193e-008,-55.458263,-117.64252
1.194e-008,-55.326771,-101.75485
1.195e-008,-55.205757,-85.863762
1.196e-008,-55.095146,-69.969543
1.197e-008,-54.994873,-54.072475
1.198e-008,-54.904881,-38.17281
1.199e-008,-54.825119,-22.270826
1.2e-008,-54.755535,-6.3667574
1.201e-008,-54.696087,9.5391436
1.202e-008,-54.64674,25.446657
1.203e-008,-54.60746,41.355541
1.204e-008,-54.57822,57.265575
1.205e-008,-54.558998,73.176537
1.206e-008,-54.549782,89.088196
1.207e-008,-54.550552,105.00035
1.208e-008,-54.561302,120.91278
1.209e-008,-54.582031,136.82524
1.21e-008,-54.612743,152.73758
1.211e-008,-54.653442,168.64954
1.212e-008,-54.70414,-175.43912
1.213e-008,-54.764854,-159.52858
1.214e-008,-54.835606,-143.61908
1.215e-008,-54.916416,-127.71085
1.216e-008,-55.007324,-111.80412
1.217e-008,-55.108356,-95.899132
1.218e-008,-55.219563,-79.99614
1.219e-008,-55.340984,-64.09539
1.22e-008,-55.472672,-48.197147
1.221e-008,-55.614685,-32.301697
1.222e-008,-55.767082,-16.409313
1.223e-008,-55.929932,-0.52030003
1.224e-008,-56.103306,15.365022
1.225e-008,-56.287285,31.246334
1.226e-008,-56.481953,47.12328
1.227e-008,-56.687397,62.995491
1.228e-008,-56.903721,78.862579
1.229e-008,-57.131023,94.724144
1.23e-008,-57.369415,110.57972
1.231e-008,-57.619015,126.42885
1.232e-008,-57.879948,142.27103
1.233e-008,-58.15234,158.10571
1.234e-008,-58.436337,173.93233
1.235e-008,-58.732082,-170.24976
1.236e-008,-59.039738,-154.44122
1.237e-008,-59.359459,-138.64278
1.238e-008,-59.691418,-122.85523
1.239e-008,-60.035805,-107.07941
1.24e-008,-60.392803,-91.316292
1.241e-008,-60.762615,-75.566864
1.242e-008,-61.145454,-59.832241
1.243e-008,-61.541538,-44.113636
1.244e-008,-61.951096,-28.41239
1.245e-008,-62.374367,-12.72996
1.246e-008,-62.8116,2.9320428
1.247e-008,-63.263062,18.571838
1.248e-008,-63.729015,34.187473
1.249e-008,-64.20974,49.776772
1.25e-008,-64.705521,65.337341
1.251e-008,-65.216652,80.866493
1.252e-008,-65.743423,96.361259
1.253e-008,-66.286148,111.81835
1.254e-008,-66.845108,127.23405
1.255e-008,-67.420601,142.60426
1.256e-008,-68.012909,157.92436
1.257e-008,-68.622284,173.18919
1.258e-008,-69.248962,-171.60703
1.259e-008,-69.893135,-156.47073
1.26e-008,-70.554924,-141.40915
1.261e-008,-71.234383,-126.43037
1.262e-008,-71.93145,-111.54337
1.263e-008,-72.645935,-96.758156
1.264e-008,-73.377449,-82.085739
1.265e-008,-74.125374,-67.538269
1.266e-008,-74.888809,-53.128876
1.267e-008,-75.666466,-38.871578
1.268e-008,-76.456596,-24.781143
1.269e-008,-77.256897,-10.872539
1.27e-008,-78.064407,2.8396635
1.271e-008,-78.875412,16.342236
1.272e-008,-79.685356,29.624706
1.273e-008,-80.488823,42.680939
1.274e-008,-81.279617,55.511284
1.275e-008,-82.050903,68.124756
1.276e-008,-82.795502,80.54113
1.277e-008,-83.506432,92.792435
1.278e-008,-84.177437,104.92323
1.279e-008,-84.803658,116.98929
1.28e-008,-85.382195,129.05464
1.281e-008,-85.912415,141.18692
1.282e-008,-86.396088,153.4523
1.283e-008,-86.837036,165.91051
1.284e-008,-87.2407,178.61093
1.285e-008,-87.613426,-168.40889
1.286e-008,-87.961929,-155.12419
1.287e-008,-88.292633,-141.52171
1.288e-008,-88.611389,-127.59774
1.289e-008,-88.92318,-113.35609
1.29e-008,-89.232025,-98.806519
1.291e-008,-89.541023,-83.962677
1.292e-008,-89.852341,-68.840714
1.293e-008,-90.167381,-53.458939
1.294e-008,-90.486847,-37.836643
1.295e-008,-90.81089,-21.994551
1.296e-008,-91.139259,-5.9542303
1.297e-008,-91.471367,10.261978
1.298e-008,-91.806473,26.630192
1.299e-008,-92.143761,43.125889
1.3e-008,-92.482422,59.723141
1.301e-008,-92.821831,76.394928
1.302e-008,-93.161545,93.113541
1.303e-008,-93.501373,109.85052
1.304e-008,-93.841461,126.57674
1.305e-008,-94.182327,143.26349
1.306e-008,-94.524704,159.88205
1.307e-008,-94.869713,176.40408
1.308e-008,-95.218613,-167.19792
1.309e-008,-95.572906,-150.95045
1.31e-008,-95.934067,-134.87988
1.311e-008,-96.303581,-119.01183
1.312e-008,-96.682831,-103.37167
1.313e-008,-97.072792,-87.984711
1.314e-008,-97.474167,-72.87677
1.315e-008,-97.887009,-58.074505
1.316e-008,-98.310646,-43.605057
1.317e-008,-98.743492,-29.496183
1.318e-008,-99.182716,-15.776098
1.319e-008,-99.624115,-2.4705229
1.32e-008,-100.06187,10.396619
1.321e-008,-100.48841,22.80895
1.322e-008,-100.89444,34.760727
1.323e-008,-101.26913,46.260914
1.324e-008,-101.60106,57.340034
1.325e-008,-101.87906,68.051247
1.326e-008,-102.09378,78.471443
1.327e-008,-102.23891,88.697212
1.328e-008,-102.3126,98.834129
1.329e-008,-102.31748,108.98875
1.33e-008,-102.2603,119.25244
1.331e-008,-102.15074,129.69814
1.332e-008,-102.00008,140.37248
1.333e-008,-101.81953,151.30096
1.334e-008,-101.61954,162.48779
1.335e-008,-101.40913,173.9241
1.336e-008,-101.19539,-174.40915
1.337e-008,-100.98396,-162.53578
1.338e-008,-100.77885,-150.48233
1.339e-008,-100.58272,-138.27466
1.34e-008,-100.39725,-125.93727
1.341e-008,-100.22312,-113.49231
1.342e-008,-100.06059,-100.95951
1.343e-008,-99.909271,-88.35527
1.344e-008,-99.768402,-75.692947
1.345e-008,-99.636978,-62.982861
1.346e-008,-99.513901,-50.233032
1.347e-008,-99.398041,-37.448242
1.348e-008,-99.288155,-24.631863
1.349e-008,-99.183037,-11.784278
1.35e-008,-99.081772,1.0955123
1.351e-008,-98.983376,14.010407
1.352e-008,-98.887108,26.963776
1.353e-008,-98.792465,39.961044
1.354e-008,-98.699066,53.006905
1.355e-008,-98.606743,66.107018
1.356e-008,-98.515503,79.266869
1.357e-008,-98.425529,92.491837
1.358e-008,-98.33712,105.78658
1.359e-008,-98.25071,119.15531
1.36e-008,-98.166771,132.60162
1.361e-008,-98.08593,146.12819
1.362e-008,-98.008713,159.73671
1.363e-008,-97.935791,173.42844
1.364e-008,-97.867676,-172.79617
1.365e-008,-97.804901,-158.93753
1.366e-008,-97.748001,-144.99643
1.367e-008,-97.697334,-130.97452
1.368e-008,-97.653259,-116.87329
1.369e-008,-97.616089,-102.69496
1.37e-008,-97.585938,-88.442215
1.371e-008,-97.562973,-74.117661
1.372e-008,-97.547157,-59.723824
1.373e-008,-97.538475,-45.263767
1.374e-008,-97.536804,-30.740551
1.375e-008,-97.541931,-16.156879
1.376e-008,-97.553581,-1.515622
1.377e-008,-97.571472,13.180111
1.378e-008,-97.595207,27.927523
1.379e-008,-97.624397,42.724007
1.38e-008,-97.658569,57.566967
1.381e-008,-97.69722,72.45359
1.382e-008,-97.739929,87.381401
1.383e-008,-97.786118,102.34819
1.384e-008,-97.835297,117.35136
1.385e-008,-97.886971,132.38878
1.386e-008,-97.94062,147.45801
1.387e-008,-97.995804,162.55693
1.388e-008,-98.052101,177.68346
1.389e-008,-98.109108,-167.1646
1.39e-008,-98.166496,-151.98961
1.391e-008,-98.224037,-136.79361
1.392e-008,-98.281509,-121.57874
1.393e-008,-98.338783,-106.34737
1.394e-008,-98.395813,-91.101486
1.395e-008,-98.452705,-75.843742
1.396e-008,-98.50956,-60.576286
1.397e-008,-98.56662,-45.301823
1.398e-008,-98.624199,-30.022575
1.399e-008,-98.68277,-14.741599
1.4e-008,-98.742775,0.53858399
1.401e-008,-98.804878,15.814836
1.402e-008,-98.869675,31.084358
1.403e-008,-98.938065,46.343384
1.404e-008,-99.010796,61.588711
1.405e-008,-99.088799,76.816566
1.406e-008,-99.173042,92.022827
1.407e-008,-99.264542,107.20288
1.408e-008,-99.364449,122.35198
1.409e-008,-99.473824,137.46472
1.41e-008,-99.593887,152.53525
1.411e-008,-99.725838,167.5565
1.412e-008,-99.870911,-177.47891
1.413e-008,-100.03035,-162.57959
1.414e-008,-100.20545,-147.75513
1.415e-008,-100.39741,-133.01688
1.416e-008,-100.60754,-118.37841
1.417e-008,-100.837,-103.85418
1.418e-008,-101.08676,-89.461746
1.419e-008,-101.35788,-75.222427
1.42e-008,-101.65099,-61.160042
1.421e-008,-101.96629,-47.302002
1.422e-008,-102.30363,-33.681992
1.423e-008,-102.66189,-20.338013
1.424e-008,-103.03883,-7.3128743
1.425e-008,-103.43066,5.3449268
1.426e-008,-103.83132,17.583864
1.427e-008,-104.23194,29.352102
1.428e-008,-104.62006,40.603226
1.429e-008,-104.97932,51.307732
1.43e-008,-105.28972,61.464581
1.431e-008,-105.52881,71.115036
1.432e-008,-105.67458,80.359444
1.433e-008,-105.70992,89.350456
1.434e-008,-105.62634,98.284607
1.435e-008,-105.42621,107.36678
1.436e-008,-105.12251,116.77976
1.437e-008,-104.73541,126.65337
1.438e-008,-104.28796,137.06502
1.439e-008,-103.80209,148.03561
1.44e-008,-103.29681,159.55099
1.441e-008,-102.78767,171.57307
1.442e-008,-102.28561,-175.94748
1.443e-008,-101.79887,-163.06262
1.444e-008,-101.33296,-149.82272
1.445e-008,-100.89158,-136.27415
1.446e-008,-100.47694,-122.45721
1.447e-008,-100.09016,-108.40802
1.448e-008,-99.732033,-94.156479
1.449e-008,-99.40255,-79.729294
1.45e-008,-99.101631,-65.148308
1.451e-008,-98.828918,-50.43261
1.452e-008,-98.583954,-35.59766
1.453e-008,-98.366394,-20.657621
1.454e-008,-98.175575,-5.6245322
1.455e-008,-98.011063,9.4924459
1.456e-008,-97.872375,24.683876
1.457e-008,-97.759056,39.943073
1.458e-008,-97.670723,55.263535
1.459e-008,-97.606934,70.639503
1.46e-008,-97.56749,86.066376
1.461e-008,-97.55204,101.53981
1.462e-008,-97.560371,117.05678
1.463e-008,-97.592255,132.61377
1.464e-008,-97.647644,148.2083
1.465e-008,-97.726341,163.83817
1.466e-008,-97.828377,179.5011
1.467e-008,-97.953659,-164.80449
1.468e-008,-98.102348,-149.07976
1.469e-008,-98.274452,-133.3262
1.47e-008,-98.470024,-117.54466
1.471e-008,-98.689323,-101.73565
1.472e-008,-98.932602,-85.89994
1.473e-008,-99.200005,-70.038185
1.474e-008,-99.492012,-54.150723
1.475e-008,-99.8088,-38.237347
1.476e-008,-100.15099,-22.298073
1.477e-008,-100.51895,-6.3325725
1.478e-008,-100.91322,9.6593237
1.479e-008,-101.33442,25.677347
1.48e-008,-101.78345,41.722736
1.481e-008,-102.26083,57.795887
1.482e-008,-102.76754,73.897446
1.483e-008,-103.30455,90.02784
1.484e-008,-103.87311,106.18797
1.485e-008,-104.4743,122.37822
1.486e-008,-105.10956,138.59944
1.487e-008,-105.78069,154.84999
1.488e-008,-106.48946,171.13208
1.489e-008,-107.23799,-172.55615
1.49e-008,-108.02881,-156.21606
1.491e-008,-108.86518,-139.85222
1.492e-008,-109.75034,-123.46843
1.493e-008,-110.68879,-107.07257
1.494e-008,-111.68598,-90.676094
1.495e-008,-112.74854,-74.298546
1.496e-008,-113.88512,-57.963097
1.497e-008,-115.10717,-41.712055
1.498e-008,-116.4292,-25.604509
1.499e-008,-117.87173,-9.7374144
1.5e-008,-119.46281,5.7342963
1.501e-008,-121.24196,20.545876
1.502e-008,-123.26455,34.211803
1.503e-008,-125.60151,45.789242
1.504e-008,-128.30652,53.266899
1.505e-008,-131.17363,52.545815
1.506e-008,-132.91817,39.920319
1.507e-008,-131.94875,26.389673
1.508e-008,-129.64737,24.617872
1.509e-008,-127.44006,31.604446
1.51e-008,-125.58648,43.009331
1.511e-008,-124.04082,56.656719
1.512e-008,-122.72746,71.501877
1.513e-008,-121.58898,87.020638
1.514e-008,-120.58265,102.90913
1.515e-008,-119.67853,118.99173
1.516e-008,-118.85526,135.14861
1.517e-008,-118.0983,151.30453
1.518e-008,-117.39578,167.41406
1.519e-008,-116.73943,-176.56229
1.52e-008,-116.1224,-160.64624
1.521e-008,-115.54017,-144.85103
1.522e-008,-114.98825,-129.18181
1.523e-008,-114.46327,-113.64546
1.524e-008,-113.96246,-98.238693
1.525e-008,-113.48347,-82.959373
1.526e-008,-113.02387,-67.798866
1.527e-008,-112.58212,-52.751053
1.528e-008,-112.15636,-37.806587
1.529e-008,-111.74545,-22.956203
1.53e-008,-111.34814,-8.1892099
1.531e-008,-110.96346,6.5064411
1.532e-008,-110.5908,21.14097
1.533e-008,-110.22939,35.723885
1.534e-008,-109.87921,50.268326
1.535e-008,-109.53981,64.782059
1.536e-008,-109.21125,79.27655
1.537e-008,-108.89361,93.75856
1.538e-008,-108.58721,108.23746
1.539e-008,-108.29241,122.71964
1.54e-008,-108.00954,137.21133
1.541e-008,-107.73913,151.71848
1.542e-008,-107.48181,166.24501
1.543e-008,-107.23816,-179.20563
1.544e-008,-107.00871,-164.62959
1.545e-008,-106.79408,-150.02574
1.546e-008,-106.59492,-135.39159
1.547e-008,-106.4119,-120.72709
1.548e-008,-106.24563,-106.0312
1.549e-008,-106.0966,-91.303726
1.55e-008,-105.96553,-76.54557
1.551e-008,-105.85291,-61.756721
1.552e-008,-105.75949,-46.938049
1.553e-008,-105.68561,-32.091282
1.554e-008,-105.63207,-17.217527
1.555e-008,-105.59933,-2.3181236
1.556e-008,-105.58807,12.606101
1.557e-008,-105.59894,27.552389
1.558e-008,-105.63266,42.519573
1.559e-008,-105.68978,57.505119
1.56e-008,-105.77128,72.508675
1.561e-008,-105.87786,87.527336
1.562e-008,-106.01058,102.55926
1.563e-008,-106.17036,117.60254
1.564e-008,-106.35844,132.65497
1.565e-008,-106.57613,147.71509
1.566e-008,-106.82492,162.77922
1.567e-008,-107.10662,177.84637
1.568e-008,-107.4232,-167.08809
1.569e-008,-107.77702,-152.02483
1.57e-008,-108.17084,-136.9684
1.571e-008,-108.60803,-121.92333
1.572e-008,-109.09258,-106.89342
1.573e-008,-109.62928,-91.884377
1.574e-008,-110.22423,-76.904282
1.575e-008,-110.88477,-61.960438
1.576e-008,-111.62045,-47.068226
1.577e-008,-112.44362,-32.242081
1.578e-008,-113.37049,-17.509071
1.579e-008,-114.42363,-2.9033406
1.58e-008,-115.63445,11.510831
1.581e-008,-117.04922,25.634897
1.582e-008,-118.74003,39.288586
1.583e-008,-120.82784,52.085705
1.584e-008,-123.53115,63.112671
1.585e-008,-127.28822,69.544312
1.586e-008,-132.70596,58.991245
1.587e-008,-133.96053,6.5751214
1.588e-008,-128.50842,-12.288846
1.589e-008,-124.56651,-7.7927089
1.59e-008,-121.81857,2.6199396
1.591e-008,-119.75591,15.162897
1.592e-008,-118.12433,28.702753
1.593e-008,-116.78773,42.785927
1.594e-008,-115.66485,57.196297
1.595e-008,-114.70518,71.827812
1.596e-008,-113.87406,86.612076
1.597e-008,-113.14682,101.51237
1.598e-008,-112.5057,116.50275
1.599e-008,-111.93727,131.5676
1.6e-008,-111.43117,146.69594
1.601e-008,-110.97887,161.88269
1.602e-008,-110.57407,177.12161
1.603e-008,-110.21096,-167.58824
1.604e-008,-109.88525,-152.24974
1.605e-008,-109.59299,-136.86287
1.606e-008,-109.33099,-121.42601
1.607e-008,-109.09624,-105.94022
1.608e-008,-108.88645,-90.402527
1.609e-008,-108.69949,-74.812195
1.61e-008,-108.53329,-59.167305
1.611e-008,-108.38605,-43.465927
1.612e-008,-108.25652,-27.706779
1.613e-008,-108.14285,-11.887167
1.614e-008,-108.04403,3.9934468
1.615e-008,-107.95856,19.937262
1.616e-008,-107.88532,35.945324
1.617e-008,-107.82323,52.018314
1.618e-008,-107.77123,68.156868
1.619e-008,-107.72816,84.360832
1.62e-008,-107.69315,100.62972
1.621e-008,-107.66513,116.9624
1.622e-008,-107.64339,133.35736
1.623e-008,-107.6268,149.81126
1.624e-008,-107.61465,166.32169
1.625e-008,-107.60628,-177.11678
1.626e-008,-107.6008,-160.50696
1.627e-008,-107.59785,-143.85606
1.628e-008,-107.59676,-127.16934
1.629e-008,-107.59718,-110.45419
1.63e-008,-107.59877,-93.718956
1.631e-008,-107.60143,-76.971458
1.632e-008,-107.60501,-60.220406
1.633e-008,-107.60975,-43.475155
1.634e-008,-107.61571,-26.744324
1.635e-008,-107.62334,-10.038437
1.636e-008,-107.633,6.6330624
1.637e-008,-107.64532,23.260801
1.638e-008,-107.66103,39.834518
1.639e-008,-107.68069,56.344959
1.64e-008,-107.70511,72.782608
1.641e-008,-107.73509,89.137756
1.642e-008,-107.77134,105.40184
1.643e-008,-107.81483,121.56332
1.644e-008,-107.86617,137.61539
1.645e-008,-107.9259,153.54565
1.646e-008,-107.9946,169.34618
1.647e-008,-108.07278,-174.99554
1.648e-008,-108.16034,-159.48859
1.649e-008,-108.25736,-144.14618
1.65e-008,-108.36349,-128.9789
1.651e-008,-108.47797,-114.00011
1.652e-008,-108.59975,-99.222023
1.653e-008,-108.72703,-84.65844
1.654e-008,-108.85771,-70.320572
1.655e-008,-108.98882,-56.221146
1.656e-008,-109.11705,-42.366692
1.657e-008,-109.23784,-28.764639
1.658e-008,-109.34673,-15.415273
1.659e-008,-109.4377,-2.3135488
1.66e-008,-109.50552,10.555394
1.661e-008,-109.54398,23.214931
1.662e-008,-109.54799,35.696831
1.663e-008,-109.51289,48.043327
1.664e-008,-109.43586,60.30571
1.665e-008,-109.31525,72.537468
1.666e-008,-109.15195,84.79306
1.667e-008,-108.94796,97.12635
1.668e-008,-108.7075,109.58199
1.669e-008,-108.4355,122.19865
1.67e-008,-108.13778,135.00253
1.671e-008,-107.82027,148.01283
1.672e-008,-107.48893,161.23712
1.673e-008,-107.14902,174.67805
1.674e-008,-106.80545,-171.67029
1.675e-008,-106.4623,-157.81422
1.676e-008,-106.12307,-143.76669
1.677e-008,-105.79054,-129.53915
1.678e-008,-105.46688,-115.14653
1.679e-008,-105.15398,-100.60197
1.68e-008,-104.85294,-85.919106
1.681e-008,-104.56504,-71.110382
1.682e-008,-104.2905,-56.188911
1.683e-008,-104.03004,-41.165756
1.684e-008,-103.78377,-26.052172
1.685e-008,-103.55176,-10.857106
1.686e-008,-103.33389,4.4091287
1.687e-008,-103.13003,19.738268
1.688e-008,-102.93974,35.12162
1.689e-008,-102.76286,50.551674
1.69e-008,-102.59891,66.022263
1.691e-008,-102.44748,81.525436
1.692e-008,-102.30811,97.055496
1.693e-008,-102.1801,112.6057
1.694e-008,-102.06303,128.17024
1.695e-008,-101.95626,143.74393
1.696e-008,-101.85909,159.32057
1.697e-008,-101.77093,174.89491
1.698e-008,-101.69114,-169.53764
1.699e-008,-101.61884,-153.98262
1.7e-008,-101.55347,-138.44473
1.701e-008,-101.4941,-122.92823
1.702e-008,-101.43996,-107.43845
1.703e-008,-101.39026,-91.978233
1.704e-008,-101.34406,-76.552353
1.705e-008,-101.30044,-61.164093
1.706e-008,-101.25853,-45.816166
1.707e-008,-101.21745,-30.511295
1.708e-008,-101.17616,-15.252356
1.709e-008,-101.13357,-0.039231576
1.71e-008,-101.08889,15.125586
1.711e-008,-101.04109,30.243109
1.712e-008,-100.98935,45.31427
1.713e-008,-100.9327,60.339912
1.714e-008,-100.87029,75.322823
1.715e-008,-100.80148,90.265701
1.716e-008,-100.72559,105.17333
1.717e-008,-100.64216,120.04964
1.718e-008,-100.55056,134.89969
1.719e-008,-100.45084,149.73004
1.72e-008,-100.34271,164.54591
1.721e-008,-100.22637,179.35428
1.722e-008,-100.102,-165.83878
1.723e-008,-99.969818,-151.02681
1.724e-008,-99.830437,-136.20346
1.725e-008,-99.684441,-121.36369
1.726e-008,-99.532623,-106.50105
1.727e-008,-99.375832,-91.612358
1.728e-008,-99.214989,-76.691895
1.729e-008,-99.050934,-61.737137
1.73e-008,-98.884796,-46.745373
1.731e-008,-98.717583,-31.714071
1.732e-008,-98.550262,-16.641413
1.733e-008,-98.383881,-1.5269138
1.734e-008,-98.219421,13.629927
1.735e-008,-98.057861,28.829365
1.736e-008,-97.90004,44.070854
1.737e-008,-97.746887,59.353355
1.738e-008,-97.599159,74.675903
1.739e-008,-97.457687,90.037231
1.74e-008,-97.323128,105.43568
1.741e-008,-97.196121,120.86951
1.742e-008,-97.077438,136.33679
1.743e-008,-96.967529,151.83566
1.744e-008,-96.866959,167.36423
1.745e-008,-96.776176,-177.07945
1.746e-008,-96.695717,-161.49776
1.747e-008,-96.626007,-145.89236
1.748e-008,-96.567398,-130.2659
1.749e-008,-96.520256,-114.61971
1.75e-008,-96.485023,-98.956665
1.751e-008,-96.461922,-83.278076
1.752e-008,-96.451363,-67.586304
1.753e-008,-96.45359,-51.883659
1.754e-008,-96.468903,-36.171783
1.755e-008,-96.497643,-20.45311
1.756e-008,-96.540054,-4.7295589
1.757e-008,-96.59639,10.996868
1.758e-008,-96.666992,26.723511
1.759e-008,-96.752106,42.448399
1.76e-008,-96.852036,58.168999
1.761e-008,-96.967064,73.882896
1.762e-008,-97.097549,89.587471
1.763e-008,-97.243706,105.27983
1.764e-008,-97.405983,120.95692
1.765e-008,-97.584633,136.61568
1.766e-008,-97.780045,152.25215
1.767e-008,-97.992607,167.86285
1.768e-008,-98.22271,-176.55679
1.769e-008,-98.470779,-161.01138
1.77e-008,-98.737251,-145.50623
1.771e-008,-99.022598,-130.04755
1.772e-008,-99.327217,-114.64168
1.773e-008,-99.651756,-99.296509
1.774e-008,-99.996552,-84.020355
1.775e-008,-100.36221,-68.823524
1.776e-008,-100.74914,-53.717209
1.777e-008,-101.15781,-38.714508
1.778e-008,-101.58862,-23.830383
1.779e-008,-102.04182,-9.0822592
1.78e-008,-102.51742,5.5094714
1.781e-008,-103.01534,19.921549
1.782e-008,-103.5349,34.127617
1.783e-008,-104.075,48.096188
1.784e-008,-104.63367,61.792503
1.785e-008,-105.2078,75.178001
1.786e-008,-105.79287,88.209488
1.787e-008,-106.38241,100.84509
1.788e-008,-106.96736,113.04173
1.789e-008,-107.53594,124.76614
1.79e-008,-108.07334,135.99945
1.791e-008,-108.56205,146.74901
1.792e-008,-108.98337,157.05754
1.793e-008,-109.31944,167.01353
1.794e-008,-109.55655,176.74382
1.795e-008,-109.68768,-173.59146
1.796e-008,-109.71442,-163.82608
1.797e-008,-109.64619,-153.81155
1.798e-008,-109.49854,-143.43465
1.799e-008,-109.28969,-132.62584
1.8e-008,-109.03763,-121.35685
1.801e-008,-108.75883,-109.63334
1.802e-008,-108.46645,-97.481941
1.803e-008,-108.17085,-84.941452
1.804e-008,-107.87972,-72.055466
1.805e-008,-107.59848,-58.868801
1.806e-008,-107.3305,-45.424393
1.807e-008,-107.07809,-31.760141
1.808e-008,-106.84248,-17.912062
1.809e-008,-106.62402,-3.9102654
1.81e-008,-106.42272,10.219008
1.811e-008,-106.23813,24.45121
1.812e-008,-106.06969,38.766899
1.813e-008,-105.91633,53.147934
1.814e-008,-105.77717,67.579819
1.815e-008,-105.65115,82.049103
1.816e-008,-105.53719,96.546074
1.817e-008,-105.43396,111.05975
1.818e-008,-105.34047,125.58412
1.819e-008,-105.25542,140.11273
1.82e-008,-105.1777,154.64113
1.821e-008,-105.10624,169.16623
1.822e-008,-105.03982,-176.31339
1.823e-008,-104.97751,-161.79893
1.824e-008,-104.91836,-147.28975
1.825e-008,-104.86134,-132.78346
1.826e-008,-104.80589,-118.27802
1.827e-008,-104.75122,-103.76875
1.828e-008,-104.69681,-89.252281
1.829e-008,-104.64223,-74.722
1.83e-008,-104.58733,-60.172661
1.831e-008,-104.53191,-45.597263
1.832e-008,-104.47602,-30.989859
1.833e-008,-104.4199,-16.342577
1.834e-008,-104.36381,-1.6488464
1.835e-008,-104.3082,13.09842
1.836e-008,-104.25371,27.906404
1.837e-008,-104.20097,42.781677
1.838e-008,-104.1506,57.731247
1.839e-008,-104.10356,72.761108
1.84e-008,-104.0606,87.87751
1.841e-008,-104.02273,103.0863
1.842e-008,-103.99058,118.39379
1.843e-008,-103.96516,133.80576
1.844e-008,-103.94724,149.32751
1.845e-008,-103.93765,164.96582
1.846e-008,-103.93699,-179.27347
1.847e-008,-103.9459,-163.38283
1.848e-008,-103.96484,-147.35555
1.849e-008,-103.99426,-131.1844
1.85e-008,-104.03417,-114.86018
1.851e-008,-104.08466,-98.373573
1.852e-008,-104.14529,-81.714172
1.853e-008,-104.21562,-64.87149
1.854e-008,-104.29459,-47.833466
1.855e-008,-104.38087,-30.587934
1.856e-008,-104.4725,-13.121543
1.857e-008,-104.56715,4.5765038
1.858e-008,-104.66133,22.518265
1.859e-008,-104.75152,40.712421
1.86e-008,-104.83287,59.165791
1.861e-008,-104.90028,77.876381
1.862e-008,-104.94774,96.839241
1.863e-008,-104.96928,116.03938
1.864e-008,-104.95857,135.45122
1.865e-008,-104.91011,155.03972
1.866e-008,-104.81936,174.75974
1.867e-008,-104.68314,-165.4408
1.868e-008,-104.5003,-145.61967
1.869e-008,-104.27165,-125.83471
1.87e-008,-103.99993,-106.13898
1.871e-008,-103.68952,-86.579643
1.872e-008,-103.34588,-67.194031
1.873e-008,-102.97512,-48.008404
1.874e-008,-102.58355,-29.039499
1.875e-008,-102.17722,-10.295019
1.876e-008,-101.76166,8.2255192
1.877e-008,-101.34177,26.5266
1.878e-008,-100.92176,44.618557
1.879e-008,-100.50514,62.51268
1.88e-008,-100.09476,80.222923
1.881e-008,-99.692856,97.762482
1.882e-008,-99.301224,115.14541
1.883e-008,-98.921181,132.38472
1.884e-008,-98.55381,149.49304
1.885e-008,-98.199799,166.4818
1.886e-008,-97.859657,-176.63808
1.887e-008,-97.533768,-159.85693
1.888e-008,-97.222282,-143.16595
1.889e-008,-96.925278,-126.55711
1.89e-008,-96.642784,-110.02296
1.891e-008,-96.374718,-93.557259
1.892e-008,-96.120987,-77.154266
1.893e-008,-95.881409,-60.80843
1.894e-008,-95.655807,-44.515369
1.895e-008,-95.444,-28.270573
1.896e-008,-95.24575,-12.070452
1.897e-008,-95.060867,4.0884347
1.898e-008,-94.889091,20.209126
1.899e-008,-94.730209,36.294247
1.9e-008,-94.583954,52.346386
1.901e-008,-94.450104,68.367561
1.902e-008,-94.32843,84.359764
1.903e-008,-94.218674,100.32471
1.904e-008,-94.120605,116.26397
1.905e-008,-94.033974,132.17877
1.906e-008,-93.958565,148.0704
1.907e-008,-93.894112,163.93968
1.908e-008,-93.840355,179.78761
1.909e-008,-93.797073,-164.38499
1.91e-008,-93.764,-148.5777
1.911e-008,-93.740891,-132.78984
1.912e-008,-93.727463,-117.0211
1.913e-008,-93.723457,-101.27132
1.914e-008,-93.728584,-85.540276
1.915e-008,-93.742569,-69.827827
1.916e-008,-93.765068,-54.133957
1.917e-008,-93.795822,-38.458946
1.918e-008,-93.834442,-22.802849
1.919e-008,-93.880623,-7.1659894
1.92e-008,-93.93399,8.4513521
1.921e-008,-93.994171,24.048624
1.922e-008,-94.060738,39.625572
1.923e-008,-94.133286,55.181484
1.924e-008,-94.21138,70.715874
1.925e-008,-94.294548,86.228203
1.926e-008,-94.382286,101.7179
1.927e-008,-94.474098,117.18419
1.928e-008,-94.569435,132.62662
1.929e-008,-94.667755,148.04456
1.93e-008,-94.76844,163.43764
1.931e-008,-94.870911,178.80511
1.932e-008,-94.974564,-165.85318
1.933e-008,-95.078735,-150.53763
1.934e-008,-95.1828,-135.24799
1.935e-008,-95.286095,-119.98473
1.936e-008,-95.387939,-104.74738
1.937e-008,-95.48774,-89.5355
1.938e-008,-95.584801,-74.348557
1.939e-008,-95.678528,-59.185467
1.94e-008,-95.768326,-44.045544
1.941e-008,-95.85363,-28.927238
1.942e-008,-95.933937,-13.82874
1.943e-008,-96.008781,1.2515236
1.944e-008,-96.077751,16.315197
1.945e-008,-96.140556,31.364981
1.946e-008,-96.196899,46.403118
1.947e-008,-96.246689,61.43187
1.948e-008,-96.289764,76.454048
1.949e-008,-96.326157,91.471878
1.95e-008,-96.356003,106.48802
1.951e-008,-96.379425,121.50498
1.952e-008,-96.396805,136.52473
1.953e-008,-96.408417,151.54984
1.954e-008,-96.414764,166.58208
1.955e-008,-96.416344,-178.37727
1.956e-008,-96.41375,-163.32628
1.957e-008,-96.4076,-148.26364
1.958e-008,-96.398613,-133.18915
1.959e-008,-96.387543,-118.10221
1.96e-008,-96.375137,-103.00204
1.961e-008,-96.362183,-87.889565
1.962e-008,-96.34948,-72.764359
1.963e-008,-96.337883,-57.627762
1.964e-008,-96.328232,-42.480412
1.965e-008,-96.321335,-27.32338
1.966e-008,-96.318069,-12.15833
1.967e-008,-96.319252,3.0131605
1.968e-008,-96.325668,18.189114
1.969e-008,-96.338158,33.367657
1.97e-008,-96.357513,48.545906
1.971e-008,-96.384575,63.722313
1.972e-008,-96.420105,78.893417
1.973e-008,-96.464905,94.056335
1.974e-008,-96.519722,109.20832
1.975e-008,-96.58532,124.346
1.976e-008,-96.662567,139.46541
1.977e-008,-96.752144,154.56215
1.978e-008,-96.854897,169.63268
1.979e-008,-96.971565,-175.32803
1.98e-008,-97.102966,-160.32553
1.981e-008,-97.249924,-145.36549
1.982e-008,-97.413193,-130.45439
1.983e-008,-97.593689,-115.59959
1.984e-008,-97.79216,-100.80943
1.985e-008,-98.009567,-86.093262
1.986e-008,-98.246651,-71.46183
1.987e-008,-98.504341,-56.927399
1.988e-008,-98.783386,-42.504333
1.989e-008,-99.084381,-28.209196
1.99e-008,-99.408081,-14.061536
1.991e-008,-99.754845,-0.083774678
1.992e-008,-100.12479,13.698274
1.993e-008,-100.51754,27.253546
1.994e-008,-100.93208,40.546734
1.995e-008,-101.36655,53.537235
1.996e-008,-101.81754,66.179321
1.997e-008,-102.27985,78.422707
1.998e-008,-102.74584,90.216362
1.999e-008,-103.20465,101.51088
2e-008,-103.64177,112.26707
END

