!CSV A.01.01
!Keysight Technologies,N5227B,US58420762,A.13.80.08
!Date: Monday, November 20, 2023 14:57:22
!Source: Standard

BEGIN CH1_DATA
Time(s),S21(DB),S21(DEG)
1e-008,-118.03516,27.834545
1.001e-008,-117.99535,40.549549
1.002e-008,-118.01884,53.56649
1.003e-008,-118.1146,66.832077
1.004e-008,-118.2923,80.296265
1.005e-008,-118.56234,93.906685
1.006e-008,-118.93677,107.61269
1.007e-008,-119.43105,121.35597
1.008e-008,-120.0659,135.0596
1.009e-008,-120.87067,148.62885
1.01e-008,-121.88608,161.90819
1.011e-008,-123.17448,174.64322
1.012e-008,-124.83457,-173.66069
1.013e-008,-127.02632,-164.12749
1.014e-008,-129.99095,-159.71733
1.015e-008,-133.65735,-169.49173
1.016e-008,-134.55344,157.31088
1.017e-008,-130.80989,138.52023
1.018e-008,-127.16019,139.60822
1.019e-008,-124.35732,148.1384
1.02e-008,-122.1643,159.67299
1.021e-008,-120.38845,172.67569
1.022e-008,-118.91404,-173.4971
1.023e-008,-117.66644,-159.16034
1.024e-008,-116.59808,-144.48383
1.025e-008,-115.67578,-129.56108
1.026e-008,-114.87675,-114.45787
1.027e-008,-114.1842,-99.21302
1.028e-008,-113.58547,-83.850945
1.029e-008,-113.07092,-68.392517
1.03e-008,-112.63369,-52.852596
1.031e-008,-112.26829,-37.234776
1.032e-008,-111.97034,-21.549511
1.033e-008,-111.73683,-5.7998891
1.034e-008,-111.56592,10.014424
1.035e-008,-111.45609,25.892555
1.036e-008,-111.40685,41.83474
1.037e-008,-111.418,57.849709
1.038e-008,-111.491,73.939552
1.039e-008,-111.62675,90.116928
1.04e-008,-111.82793,106.39454
1.041e-008,-112.09769,122.78719
1.042e-008,-112.44032,139.31934
1.043e-008,-112.86105,156.0269
1.044e-008,-113.36744,172.95084
1.045e-008,-113.96737,-169.84496
1.046e-008,-114.67204,-152.27116
1.047e-008,-115.49377,-134.19289
1.048e-008,-116.44724,-115.41471
1.049e-008,-117.54714,-95.626572
1.05e-008,-118.79903,-74.345825
1.051e-008,-120.18231,-50.825077
1.052e-008,-121.59661,-24.018883
1.053e-008,-122.77087,6.9939656
1.054e-008,-123.25378,41.533073
1.055e-008,-122.77048,76.095596
1.056e-008,-121.58527,107.13644
1.057e-008,-120.15071,133.91289
1.058e-008,-118.74291,157.32678
1.059e-008,-117.46497,178.42644
1.06e-008,-116.339,-162.03735
1.061e-008,-115.3589,-143.57628
1.062e-008,-114.5097,-125.87997
1.063e-008,-113.77754,-108.756
1.064e-008,-113.14874,-92.075897
1.065e-008,-112.61232,-75.752586
1.066e-008,-112.15892,-59.729156
1.067e-008,-111.78119,-43.971146
1.068e-008,-111.47226,-28.451357
1.069e-008,-111.2272,-13.158026
1.07e-008,-111.04104,1.9164631
1.071e-008,-110.90988,16.770088
1.072e-008,-110.82948,31.400743
1.073e-008,-110.79644,45.79668
1.074e-008,-110.80656,59.946411
1.075e-008,-110.85574,73.834412
1.076e-008,-110.93919,87.442146
1.077e-008,-111.05148,100.75184
1.078e-008,-111.18618,113.74699
1.079e-008,-111.33568,126.41258
1.08e-008,-111.49132,138.74289
1.081e-008,-111.64317,150.74016
1.082e-008,-111.78082,162.42465
1.083e-008,-111.89401,173.8295
1.084e-008,-111.97293,-174.9884
1.085e-008,-112.01042,-163.95502
1.086e-008,-112.00191,-152.98357
1.087e-008,-111.94705,-141.97997
1.088e-008,-111.84917,-130.85347
1.089e-008,-111.71516,-119.52608
1.09e-008,-111.55417,-107.93552
1.091e-008,-111.37686,-96.03965
1.092e-008,-111.1941,-83.814888
1.093e-008,-111.01623,-71.25386
1.094e-008,-110.85262,-58.359577
1.095e-008,-110.71186,-45.144875
1.096e-008,-110.60088,-31.62405
1.097e-008,-110.52617,-17.815958
1.098e-008,-110.4932,-3.7367039
1.099e-008,-110.50707,10.598086
1.1e-008,-110.57251,25.176434
1.101e-008,-110.69445,39.989346
1.102e-008,-110.87784,55.034748
1.103e-008,-111.12836,70.31514
1.104e-008,-111.45234,85.839874
1.105e-008,-111.85727,101.63162
1.106e-008,-112.35226,117.72301
1.107e-008,-112.94862,134.1685
1.108e-008,-113.66004,151.05307
1.109e-008,-114.50365,168.50841
1.11e-008,-115.49999,-173.2578
1.111e-008,-116.67248,-153.90347
1.112e-008,-118.03871,-132.86301
1.113e-008,-119.58958,-109.18095
1.114e-008,-121.21149,-81.387794
1.115e-008,-122.5287,-48.05846
1.116e-008,-122.87615,-10.456443
1.117e-008,-121.991,25.864304
1.118e-008,-120.42579,56.856182
1.119e-008,-118.75948,82.841766
1.12e-008,-117.23572,105.44021
1.121e-008,-115.91116,125.90364
1.122e-008,-114.77975,145.0065
1.123e-008,-113.82105,163.20551
1.124e-008,-113.01433,-179.22038
1.125e-008,-112.34196,-162.09796
1.126e-008,-111.7904,-145.31396
1.127e-008,-111.34924,-128.79666
1.128e-008,-111.01132,-112.49731
1.129e-008,-110.77158,-96.386612
1.13e-008,-110.62708,-80.445763
1.131e-008,-110.57719,-64.667725
1.132e-008,-110.62296,-49.05405
1.133e-008,-110.76751,-33.617851
1.134e-008,-111.0161,-18.380966
1.135e-008,-111.37679,-3.3826497
1.136e-008,-111.86115,11.317462
1.137e-008,-112.48462,25.626303
1.138e-008,-113.26823,39.396709
1.139e-008,-114.23985,52.390305
1.14e-008,-115.43426,64.19593
1.141e-008,-116.88778,74.081909
1.142e-008,-118.60488,80.697685
1.143e-008,-120.4315,81.732239
1.144e-008,-121.72281,74.999931
1.145e-008,-121.43673,64.24234
1.146e-008,-119.70049,58.659679
1.147e-008,-117.57163,60.663467
1.148e-008,-115.59576,67.81057
1.149e-008,-113.88726,77.933022
1.15e-008,-112.4307,89.799889
1.151e-008,-111.1893,102.73843
1.152e-008,-110.12842,116.37028
1.153e-008,-109.22086,130.46776
1.154e-008,-108.4457,144.89056
1.155e-008,-107.7873,159.5441
1.156e-008,-107.23402,174.36343
1.157e-008,-106.77702,-170.69754
1.158e-008,-106.41001,-155.67279
1.159e-008,-106.12849,-140.59003
1.16e-008,-105.92966,-125.47178
1.161e-008,-105.81216,-110.33816
1.162e-008,-105.77583,-95.207314
1.163e-008,-105.82207,-80.098984
1.164e-008,-105.95344,-65.032227
1.165e-008,-106.17429,-50.031593
1.166e-008,-106.49061,-35.124947
1.167e-008,-106.91079,-20.349977
1.168e-008,-107.44629,-5.7571192
1.169e-008,-108.11205,8.580204
1.17e-008,-108.92868,22.555628
1.171e-008,-109.92366,36.000305
1.172e-008,-111.13422,48.632732
1.173e-008,-112.60902,59.956062
1.174e-008,-114.40194,69.03212
1.175e-008,-116.5256,74.000458
1.176e-008,-118.72603,71.523041
1.177e-008,-119.92688,59.500805
1.178e-008,-118.97699,46.67115
1.179e-008,-116.84811,43.059452
1.18e-008,-114.73083,47.340645
1.181e-008,-112.94726,56.033085
1.182e-008,-111.50332,67.125458
1.183e-008,-110.35048,79.600174
1.184e-008,-109.44548,92.921555
1.185e-008,-108.75699,106.79037
1.186e-008,-108.26576,121.02538
1.187e-008,-107.96247,135.50948
1.188e-008,-107.84718,150.16281
1.189e-008,-107.92985,164.92343
1.19e-008,-108.23249,179.73987
1.191e-008,-108.79517,-165.4424
1.192e-008,-109.68683,-150.6955
1.193e-008,-111.0323,-136.14217
1.194e-008,-113.08064,-122.06161
1.195e-008,-116.43496,-109.34809
1.196e-008,-123.28542,-103.70949
1.197e-008,-128.56224,142.40021
1.198e-008,-116.9798,132.61569
1.199e-008,-111.63375,144.04082
1.2e-008,-108.07529,157.79097
1.201e-008,-105.37247,172.24063
1.202e-008,-103.17973,-173.01939
1.203e-008,-101.33086,-158.14394
1.204e-008,-99.733116,-143.20721
1.205e-008,-98.329376,-128.25066
1.206e-008,-97.082024,-113.30187
1.207e-008,-95.964882,-98.380745
1.208e-008,-94.95916,-83.504654
1.209e-008,-94.050819,-68.689079
1.21e-008,-93.22921,-53.949173
1.211e-008,-92.485947,-39.301048
1.212e-008,-91.814369,-24.761923
1.213e-008,-91.209023,-10.351033
1.214e-008,-90.665268,3.909991
1.215e-008,-90.178993,17.996344
1.216e-008,-89.746315,31.879871
1.217e-008,-89.363266,45.528107
1.218e-008,-89.025513,58.904247
1.219e-008,-88.727837,71.967285
1.22e-008,-88.463768,84.672142
1.221e-008,-88.224968,96.972023
1.222e-008,-88.000641,108.82162
1.223e-008,-87.776947,120.18317
1.224e-008,-87.53688,131.03554
1.225e-008,-87.260529,141.38579
1.226e-008,-86.926567,151.28123
1.227e-008,-86.514771,160.8181
1.228e-008,-86.009621,170.13963
1.229e-008,-85.403419,179.42183
1.23e-008,-84.698112,-171.15294
1.231e-008,-83.904572,-161.42383
1.232e-008,-83.039848,-151.27219
1.233e-008,-82.123627,-140.6291
1.234e-008,-81.175125,-129.47043
1.235e-008,-80.211113,-117.80579
1.236e-008,-79.245102,-105.6666
1.237e-008,-78.287308,-93.09523
1.238e-008,-77.345085,-80.138092
1.239e-008,-76.423462,-66.840843
1.24e-008,-75.525673,-53.245972
1.241e-008,-74.653664,-39.391663
1.242e-008,-73.808441,-25.311481
1.243e-008,-72.990349,-11.034595
1.244e-008,-72.199303,3.4138091
1.245e-008,-71.434898,18.012156
1.246e-008,-70.696564,32.741936
1.247e-008,-69.983597,47.58728
1.248e-008,-69.29525,62.534557
1.249e-008,-68.630722,77.572044
1.25e-008,-67.989243,92.689636
1.251e-008,-67.370026,107.8786
1.252e-008,-66.772316,123.13132
1.253e-008,-66.195404,138.44121
1.254e-008,-65.638588,153.80246
1.255e-008,-65.101227,169.21005
1.256e-008,-64.582703,-175.34048
1.257e-008,-64.082428,-159.85307
1.258e-008,-63.599861,-144.33119
1.259e-008,-63.134487,-128.77791
1.26e-008,-62.685818,-113.19601
1.261e-008,-62.253403,-97.587929
1.262e-008,-61.836815,-81.955872
1.263e-008,-61.435658,-66.301826
1.264e-008,-61.049553,-50.627567
1.265e-008,-60.678154,-34.934711
1.266e-008,-60.321125,-19.224718
1.267e-008,-59.978161,-3.4989133
1.268e-008,-59.648972,12.241503
1.269e-008,-59.333282,27.995411
1.27e-008,-59.030834,43.761814
1.271e-008,-58.741398,59.539772
1.272e-008,-58.464737,75.328453
1.273e-008,-58.200645,91.127045
1.274e-008,-57.948925,106.93484
1.275e-008,-57.709389,122.75117
1.276e-008,-57.481861,138.57539
1.277e-008,-57.266186,154.40694
1.278e-008,-57.062202,170.24525
1.279e-008,-56.869774,-173.91017
1.28e-008,-56.688763,-158.05978
1.281e-008,-56.519047,-142.20406
1.282e-008,-56.360512,-126.34341
1.283e-008,-56.213051,-110.47823
1.284e-008,-56.076561,-94.60891
1.285e-008,-55.950954,-78.735794
1.286e-008,-55.836143,-62.859234
1.287e-008,-55.732056,-46.979553
1.288e-008,-55.638611,-31.097059
1.289e-008,-55.555756,-15.212066
1.29e-008,-55.483421,0.67515373
1.291e-008,-55.421562,16.56431
1.292e-008,-55.370136,32.455128
1.293e-008,-55.329094,48.347351
1.294e-008,-55.298409,64.240707
1.295e-008,-55.278049,80.134956
1.296e-008,-55.267994,96.029846
1.297e-008,-55.268223,111.92513
1.298e-008,-55.278725,127.82054
1.299e-008,-55.299492,143.71588
1.3e-008,-55.330524,159.61087
1.301e-008,-55.371826,175.50529
1.302e-008,-55.423409,-168.60114
1.303e-008,-55.485279,-152.70862
1.304e-008,-55.557465,-136.81741
1.305e-008,-55.639984,-120.9278
1.306e-008,-55.732868,-105.04002
1.307e-008,-55.836155,-89.154343
1.308e-008,-55.949886,-73.271034
1.309e-008,-56.074108,-57.390373
1.31e-008,-56.20887,-41.512653
1.311e-008,-56.354237,-25.638178
1.312e-008,-56.510262,-9.7672558
1.313e-008,-56.677021,6.0997849
1.314e-008,-56.854591,21.962608
1.315e-008,-57.043053,37.82085
1.316e-008,-57.242493,53.674141
1.317e-008,-57.453011,69.522079
1.318e-008,-57.674702,85.364243
1.319e-008,-57.907681,101.2002
1.32e-008,-58.152058,117.02946
1.321e-008,-58.407963,132.85153
1.322e-008,-58.675522,148.66588
1.323e-008,-58.954876,164.47192
1.324e-008,-59.246174,-179.73094
1.325e-008,-59.549568,-163.94339
1.326e-008,-59.865227,-148.16612
1.327e-008,-60.193321,-132.39992
1.328e-008,-60.534039,-116.6456
1.329e-008,-60.887566,-100.90407
1.33e-008,-61.254108,-85.1763
1.331e-008,-61.633881,-69.463348
1.332e-008,-62.0271,-53.766373
1.333e-008,-62.43401,-38.086651
1.334e-008,-62.854851,-22.425543
1.335e-008,-63.289871,-6.7845678
1.336e-008,-63.739349,8.8346128
1.337e-008,-64.20356,24.430174
1.338e-008,-64.682777,40.000111
1.339e-008,-65.177315,55.542194
1.34e-008,-65.687469,71.05397
1.341e-008,-66.213554,86.532722
1.342e-008,-66.75589,101.97545
1.343e-008,-67.314789,117.37878
1.344e-008,-67.890572,132.73901
1.345e-008,-68.483551,148.052
1.346e-008,-69.094032,163.31311
1.347e-008,-69.722298,178.51721
1.348e-008,-70.368591,-166.34143
1.349e-008,-71.033127,-151.26924
1.35e-008,-71.716042,-136.27332
1.351e-008,-72.417412,-121.36159
1.352e-008,-73.137184,-106.5428
1.353e-008,-73.875183,-91.826645
1.354e-008,-74.631042,-77.223732
1.355e-008,-75.404144,-62.745594
1.356e-008,-76.193604,-48.404591
1.357e-008,-76.998146,-34.213806
1.358e-008,-77.816063,-20.186678
1.359e-008,-78.645096,-6.3365779
1.36e-008,-79.482368,7.3239012
1.361e-008,-80.324287,20.784008
1.362e-008,-81.166504,34.035976
1.363e-008,-82.003922,47.076939
1.364e-008,-82.830742,59.910759
1.365e-008,-83.640686,72.549835
1.366e-008,-84.427307,85.017166
1.367e-008,-85.184448,97.347267
1.368e-008,-85.906761,109.5864
1.369e-008,-86.590294,121.79091
1.37e-008,-87.232964,134.02437
1.371e-008,-87.834763,146.35335
1.372e-008,-88.39785,158.84319
1.373e-008,-88.926201,171.55318
1.374e-008,-89.425125,-175.46581
1.375e-008,-89.900711,-162.17361
1.376e-008,-90.359222,-148.54034
1.377e-008,-90.806564,-134.5457
1.378e-008,-91.247925,-120.17729
1.379e-008,-91.687523,-105.42907
1.38e-008,-92.128464,-90.299034
1.381e-008,-92.572617,-74.788727
1.382e-008,-93.020699,-58.902058
1.383e-008,-93.472206,-42.645355
1.384e-008,-93.925545,-26.026947
1.385e-008,-94.378159,-9.0589314
1.386e-008,-94.826553,8.2427206
1.387e-008,-95.266701,25.856327
1.388e-008,-95.694191,43.754078
1.389e-008,-96.104652,61.900837
1.39e-008,-96.494209,80.253853
1.391e-008,-96.859795,98.764069
1.392e-008,-97.199615,117.37825
1.393e-008,-97.513512,136.04054
1.394e-008,-97.80275,154.69644
1.395e-008,-98.070297,173.29532
1.396e-008,-98.320313,-168.20604
1.397e-008,-98.557877,-149.84305
1.398e-008,-98.788712,-131.64223
1.399e-008,-99.018669,-113.62054
1.4e-008,-99.253532,-95.787125
1.401e-008,-99.498871,-78.143852
1.402e-008,-99.759804,-60.687038
1.403e-008,-100.04098,-43.407974
1.404e-008,-100.34663,-26.294598
1.405e-008,-100.68067,-9.3308372
1.406e-008,-101.04678,7.5010042
1.407e-008,-101.44824,24.222433
1.408e-008,-101.88844,40.85796
1.409e-008,-102.37079,57.436211
1.41e-008,-102.89876,73.990868
1.411e-008,-103.47617,90.562973
1.412e-008,-104.10711,107.20498
1.413e-008,-104.7961,123.98127
1.414e-008,-105.54783,140.97745
1.415e-008,-106.36674,158.30693
1.416e-008,-107.25642,176.12463
1.417e-008,-108.21699,-165.35985
1.418e-008,-109.24058,-145.85944
1.419e-008,-110.30196,-125.00103
1.42e-008,-111.34221,-102.34988
1.421e-008,-112.24798,-77.554405
1.422e-008,-112.84824,-50.691711
1.423e-008,-112.97375,-22.669577
1.424e-008,-112.57696,4.9340754
1.425e-008,-111.77228,30.765604
1.426e-008,-110.74206,54.318825
1.427e-008,-109.63316,75.76358
1.428e-008,-108.53139,95.51889
1.429e-008,-107.47746,114.0003
1.43e-008,-106.48662,131.54109
1.431e-008,-105.56191,148.39119
1.432e-008,-104.70105,164.73238
1.433e-008,-103.89967,-179.30414
1.434e-008,-103.15289,-163.62102
1.435e-008,-102.45616,-148.14661
1.436e-008,-101.80553,-132.82748
1.437e-008,-101.19733,-117.62359
1.438e-008,-100.62856,-102.50333
1.439e-008,-100.09662,-87.443909
1.44e-008,-99.59935,-72.427269
1.441e-008,-99.134842,-57.439144
1.442e-008,-98.701492,-42.469002
1.443e-008,-98.297897,-27.509098
1.444e-008,-97.922821,-12.553122
1.445e-008,-97.575165,2.4032176
1.446e-008,-97.253998,17.363434
1.447e-008,-96.958435,32.329617
1.448e-008,-96.687721,47.303448
1.449e-008,-96.441132,62.285931
1.45e-008,-96.217972,77.277412
1.451e-008,-96.017647,92.278008
1.452e-008,-95.839622,107.28765
1.453e-008,-95.683258,122.30574
1.454e-008,-95.548134,137.33208
1.455e-008,-95.433655,152.36554
1.456e-008,-95.339432,167.40567
1.457e-008,-95.264961,-177.54826
1.458e-008,-95.209839,-162.4971
1.459e-008,-95.173576,-147.44171
1.46e-008,-95.155807,-132.38287
1.461e-008,-95.156075,-117.32119
1.462e-008,-95.173981,-102.25744
1.463e-008,-95.209122,-87.192322
1.464e-008,-95.261108,-72.126167
1.465e-008,-95.329536,-57.059483
1.466e-008,-95.413994,-41.992413
1.467e-008,-95.514091,-26.925449
1.468e-008,-95.629478,-11.858623
1.469e-008,-95.759697,3.2083158
1.47e-008,-95.904419,18.275492
1.471e-008,-96.063164,33.343231
1.472e-008,-96.235611,48.411983
1.473e-008,-96.421371,63.482552
1.474e-008,-96.620049,78.55574
1.475e-008,-96.831238,93.632652
1.476e-008,-97.054634,108.71397
1.477e-008,-97.28978,123.80167
1.478e-008,-97.536423,138.89653
1.479e-008,-97.794136,154.0006
1.48e-008,-98.062668,169.11507
1.481e-008,-98.341675,-175.75826
1.482e-008,-98.630905,-160.61763
1.483e-008,-98.930092,-145.46159
1.484e-008,-99.239037,-130.28877
1.485e-008,-99.55751,-115.09735
1.486e-008,-99.88546,-99.887024
1.487e-008,-100.22268,-84.656265
1.488e-008,-100.56915,-69.40596
1.489e-008,-100.92488,-54.13533
1.49e-008,-101.28999,-38.846462
1.491e-008,-101.6645,-23.540972
1.492e-008,-102.04865,-8.2224026
1.493e-008,-102.44274,7.1056852
1.494e-008,-102.84722,22.436275
1.495e-008,-103.26238,37.762825
1.496e-008,-103.68889,53.074535
1.497e-008,-104.12747,68.359978
1.498e-008,-104.57896,83.602753
1.499e-008,-105.04408,98.786354
1.5e-008,-105.52393,113.88615
1.501e-008,-106.01954,128.87666
1.502e-008,-106.53192,143.72267
1.503e-008,-107.06179,158.3856
1.504e-008,-107.60965,172.81757
1.505e-008,-108.17525,-173.04048
1.506e-008,-108.75706,-159.25883
1.507e-008,-109.3514,-145.91728
1.508e-008,-109.95158,-133.11061
1.509e-008,-110.54593,-120.93919
1.51e-008,-111.11624,-109.50471
1.511e-008,-111.6358,-98.881668
1.512e-008,-112.06902,-89.095764
1.513e-008,-112.37531,-80.073288
1.514e-008,-112.51517,-71.616119
1.515e-008,-112.46357,-63.403675
1.516e-008,-112.21804,-55.058243
1.517e-008,-111.80137,-46.239632
1.518e-008,-111.25124,-36.716534
1.519e-008,-110.6114,-26.384052
1.52e-008,-109.9206,-15.243471
1.521e-008,-109.20887,-3.3590987
1.522e-008,-108.49761,9.1764097
1.523e-008,-107.80149,22.26656
1.524e-008,-107.12897,35.820538
1.525e-008,-106.48585,49.75948
1.526e-008,-105.87442,64.016655
1.527e-008,-105.29621,78.536606
1.528e-008,-104.75163,93.274734
1.529e-008,-104.24021,108.19458
1.53e-008,-103.76147,123.26522
1.531e-008,-103.31479,138.46211
1.532e-008,-102.89932,153.76607
1.533e-008,-102.51414,169.15944
1.534e-008,-102.15863,-175.37021
1.535e-008,-101.83199,-159.83446
1.536e-008,-101.53356,-144.24281
1.537e-008,-101.26277,-128.60303
1.538e-008,-101.01907,-112.92051
1.539e-008,-100.80196,-97.201813
1.54e-008,-100.61117,-81.450775
1.541e-008,-100.44624,-65.671555
1.542e-008,-100.30701,-49.866379
1.543e-008,-100.19323,-34.03867
1.544e-008,-100.10482,-18.189537
1.545e-008,-100.04166,-2.3213089
1.546e-008,-100.00375,13.565038
1.547e-008,-99.991203,29.468536
1.548e-008,-100.00403,45.388725
1.549e-008,-100.04252,61.324139
1.55e-008,-100.10692,77.276726
1.551e-008,-100.19751,93.245193
1.552e-008,-100.31476,109.23018
1.553e-008,-100.4591,125.23263
1.554e-008,-100.63127,141.25381
1.555e-008,-100.83187,157.29515
1.556e-008,-101.06173,173.35864
1.557e-008,-101.32184,-170.55368
1.558e-008,-101.61337,-154.43858
1.559e-008,-101.9374,-138.29286
1.56e-008,-102.29568,-122.1114
1.561e-008,-102.68982,-105.88869
1.562e-008,-103.12188,-89.618378
1.563e-008,-103.5941,-73.291656
1.564e-008,-104.10933,-56.897961
1.565e-008,-104.67084,-40.42382
1.566e-008,-105.28233,-23.851309
1.567e-008,-105.94827,-7.1579623
1.568e-008,-106.67403,9.6849718
1.569e-008,-107.46615,26.718344
1.57e-008,-108.33207,43.995312
1.571e-008,-109.281,61.591339
1.572e-008,-110.32324,79.611473
1.573e-008,-111.4707,98.211548
1.574e-008,-112.73499,117.62284
1.575e-008,-114.12388,138.19421
1.576e-008,-115.62922,160.45125
1.577e-008,-117.20156,-174.85579
1.578e-008,-118.69571,-146.85503
1.579e-008,-119.8121,-115.22879
1.58e-008,-120.19434,-81.486183
1.581e-008,-119.76682,-48.847088
1.582e-008,-118.8308,-19.594042
1.583e-008,-117.73012,6.0939026
1.584e-008,-116.6603,29.018867
1.585e-008,-115.69704,50.000137
1.586e-008,-114.85841,69.642776
1.587e-008,-114.13999,88.349129
1.588e-008,-113.53111,106.38763
1.589e-008,-113.01945,123.9347
1.59e-008,-112.59432,141.11562
1.591e-008,-112.24577,158.01315
1.592e-008,-111.96563,174.69194
1.593e-008,-111.7468,-168.80211
1.594e-008,-111.5835,-152.43367
1.595e-008,-111.47033,-136.17555
1.596e-008,-111.40322,-120.00231
1.597e-008,-111.37797,-103.89615
1.598e-008,-111.39144,-87.839409
1.599e-008,-111.44016,-71.817169
1.6e-008,-111.52143,-55.814159
1.601e-008,-111.63229,-39.81575
1.602e-008,-111.77035,-23.80608
1.603e-008,-111.93263,-7.7725024
1.604e-008,-112.11672,8.3036613
1.605e-008,-112.31953,24.436316
1.606e-008,-112.53831,40.643555
1.607e-008,-112.76967,56.943214
1.608e-008,-113.01014,73.35434
1.609e-008,-113.25581,89.894379
1.61e-008,-113.50244,106.58097
1.611e-008,-113.74493,123.43226
1.612e-008,-113.97824,140.45956
1.613e-008,-114.19635,157.6731
1.614e-008,-114.39339,175.07332
1.615e-008,-114.56282,-167.3421
1.616e-008,-114.69876,-149.58917
1.617e-008,-114.79532,-131.68663
1.618e-008,-114.84868,-113.67146
1.619e-008,-114.85509,-95.582733
1.62e-008,-114.81358,-77.46418
1.621e-008,-114.72466,-59.365322
1.622e-008,-114.5909,-41.332413
1.623e-008,-114.41634,-23.40501
1.624e-008,-114.20636,-5.6164551
1.625e-008,-113.96725,12.007244
1.626e-008,-113.70556,29.447491
1.627e-008,-113.42771,46.699638
1.628e-008,-113.13983,63.758835
1.629e-008,-112.84759,80.628365
1.63e-008,-112.55588,97.315269
1.631e-008,-112.26896,113.82759
1.632e-008,-111.99049,130.17645
1.633e-008,-111.72365,146.37109
1.634e-008,-111.47102,162.4216
1.635e-008,-111.23475,178.33817
1.636e-008,-111.01642,-165.87166
1.637e-008,-110.8176,-150.19992
1.638e-008,-110.63929,-134.64323
1.639e-008,-110.4826,-119.19453
1.64e-008,-110.34805,-103.85135
1.641e-008,-110.23624,-88.611702
1.642e-008,-110.14758,-73.475273
1.643e-008,-110.08247,-58.441872
1.644e-008,-110.04079,-43.513744
1.645e-008,-110.0228,-28.694096
1.646e-008,-110.02828,-13.98694
1.647e-008,-110.057,0.60321903
1.648e-008,-110.10839,15.06922
1.649e-008,-110.18204,29.404242
1.65e-008,-110.27702,43.599289
1.651e-008,-110.39222,57.644844
1.652e-008,-110.52628,71.531952
1.653e-008,-110.67745,85.24942
1.654e-008,-110.84332,98.786407
1.655e-008,-111.02144,112.13455
1.656e-008,-111.20859,125.28526
1.657e-008,-111.40092,138.23175
1.658e-008,-111.59434,150.97128
1.659e-008,-111.78403,163.50627
1.66e-008,-111.96503,175.84439
1.661e-008,-112.13205,-171.9986
1.662e-008,-112.2803,-159.99908
1.663e-008,-112.40525,-148.12781
1.664e-008,-112.50379,-136.34537
1.665e-008,-112.57305,-124.60638
1.666e-008,-112.61298,-112.86568
1.667e-008,-112.62373,-101.07596
1.668e-008,-112.60847,-89.190628
1.669e-008,-112.5705,-77.172684
1.67e-008,-112.5145,-64.988335
1.671e-008,-112.44571,-52.614937
1.672e-008,-112.36954,-40.035225
1.673e-008,-112.29153,-27.239742
1.674e-008,-112.2168,-14.225757
1.675e-008,-112.14996,-0.99437886
1.676e-008,-112.09546,12.449235
1.677e-008,-112.05666,26.097759
1.678e-008,-112.03708,39.944302
1.679e-008,-112.03927,53.978767
1.68e-008,-112.06567,68.194374
1.681e-008,-112.11852,82.582443
1.682e-008,-112.19956,97.137543
1.683e-008,-112.31016,111.85434
1.684e-008,-112.45188,126.72879
1.685e-008,-112.6261,141.75957
1.686e-008,-112.83403,156.95016
1.687e-008,-113.07642,172.30132
1.688e-008,-113.35445,-172.17792
1.689e-008,-113.66933,-156.48039
1.69e-008,-114.02099,-140.58861
1.691e-008,-114.41019,-124.488
1.692e-008,-114.83705,-108.15434
1.693e-008,-115.30057,-91.556587
1.694e-008,-115.7996,-74.659904
1.695e-008,-116.33116,-57.418766
1.696e-008,-116.89101,-39.785915
1.697e-008,-117.47092,-21.704256
1.698e-008,-118.0602,-3.1147912
1.699e-008,-118.64349,16.0305
1.7e-008,-119.19876,35.764046
1.701e-008,-119.7008,56.078014
1.702e-008,-120.12117,76.906967
1.703e-008,-120.43055,98.10363
1.704e-008,-120.61003,119.45625
1.705e-008,-120.65193,140.70493
1.706e-008,-120.56259,161.59828
1.707e-008,-120.36127,-178.07523
1.708e-008,-120.07444,-158.43996
1.709e-008,-119.72706,-139.55487
1.71e-008,-119.34261,-121.41714
1.711e-008,-118.93816,-103.98341
1.712e-008,-118.52567,-87.196022
1.713e-008,-118.11288,-70.987114
1.714e-008,-117.70381,-55.284298
1.715e-008,-117.29967,-40.025101
1.716e-008,-116.901,-25.144629
1.717e-008,-116.50621,-10.584001
1.718e-008,-116.11452,3.7102916
1.719e-008,-115.72385,17.791229
1.72e-008,-115.33355,31.708607
1.721e-008,-114.9426,45.504795
1.722e-008,-114.55117,59.222637
1.723e-008,-114.15926,72.900833
1.724e-008,-113.76817,86.568535
1.725e-008,-113.37881,100.25691
1.726e-008,-112.99326,113.98664
1.727e-008,-112.6132,127.77839
1.728e-008,-112.24074,141.64574
1.729e-008,-111.87775,155.59857
1.73e-008,-111.52644,169.64412
1.731e-008,-111.18843,-176.21107
1.732e-008,-110.86559,-161.96751
1.733e-008,-110.55952,-147.62343
1.734e-008,-110.27142,-133.18311
1.735e-008,-110.00272,-118.64407
1.736e-008,-109.75444,-104.01271
1.737e-008,-109.52739,-89.291046
1.738e-008,-109.3225,-74.483528
1.739e-008,-109.14064,-59.592396
1.74e-008,-108.98206,-44.623096
1.741e-008,-108.84766,-29.577793
1.742e-008,-108.73766,-14.459634
1.743e-008,-108.65287,0.72746694
1.744e-008,-108.59348,15.981702
1.745e-008,-108.56006,31.301176
1.746e-008,-108.55294,46.681995
1.747e-008,-108.5729,62.125072
1.748e-008,-108.62015,77.62812
1.749e-008,-108.6954,93.191109
1.75e-008,-108.799,108.81351
1.751e-008,-108.93198,124.49697
1.752e-008,-109.0948,140.24158
1.753e-008,-109.28852,156.05118
1.754e-008,-109.5137,171.92671
1.755e-008,-109.77184,-172.127
1.756e-008,-110.06358,-156.10512
1.757e-008,-110.39063,-140.00134
1.758e-008,-110.75423,-123.80554
1.759e-008,-111.1562,-107.50944
1.76e-008,-111.59827,-91.099869
1.761e-008,-112.08262,-74.559875
1.762e-008,-112.61131,-57.868832
1.763e-008,-113.18715,-41.000942
1.764e-008,-113.81244,-23.922638
1.765e-008,-114.48983,-6.5928216
1.766e-008,-115.22226,11.045952
1.767e-008,-116.01208,29.060635
1.768e-008,-116.85957,47.544743
1.769e-008,-117.76406,66.615036
1.77e-008,-118.71854,86.419731
1.771e-008,-119.71038,107.14099
1.772e-008,-120.71183,128.98363
1.773e-008,-121.67645,152.12616
1.774e-008,-122.53329,176.65636
1.775e-008,-123.1961,-157.58167
1.776e-008,-123.58565,-131.09306
1.777e-008,-123.67209,-104.62814
1.778e-008,-123.48936,-78.934761
1.779e-008,-123.11881,-54.4911
1.78e-008,-122.64661,-31.419218
1.781e-008,-122.14202,-9.6364756
1.782e-008,-121.64955,11.052142
1.783e-008,-121.19709,30.853806
1.784e-008,-120.796,49.953579
1.785e-008,-120.45319,68.500412
1.786e-008,-120.16853,86.613319
1.787e-008,-119.94096,104.40293
1.788e-008,-119.76814,121.94322
1.789e-008,-119.64661,139.30276
1.79e-008,-119.57253,156.53343
1.791e-008,-119.54337,173.69009
1.792e-008,-119.55312,-169.17554
1.793e-008,-119.59892,-152.02789
1.794e-008,-119.67523,-134.8119
1.795e-008,-119.77712,-117.48769
1.796e-008,-119.8979,-100.00681
1.797e-008,-120.03018,-82.326523
1.798e-008,-120.16386,-64.397484
1.799e-008,-120.28947,-46.182442
1.8e-008,-120.39272,-27.650295
1.801e-008,-120.45997,-8.7887611
1.802e-008,-120.47536,10.387264
1.803e-008,-120.42241,29.856813
1.804e-008,-120.28748,49.545658
1.805e-008,-120.06084,69.352013
1.806e-008,-119.73764,89.163048
1.807e-008,-119.32093,108.86365
1.808e-008,-118.81667,128.35048
1.809e-008,-118.23871,147.53824
1.81e-008,-117.60039,166.38953
1.811e-008,-116.91701,-175.1234
1.812e-008,-116.20239,-156.99362
1.813e-008,-115.46846,-139.19981
1.814e-008,-114.72522,-121.71249
1.815e-008,-113.98051,-104.50102
1.816e-008,-113.24067,-87.522484
1.817e-008,-112.50996,-70.747917
1.818e-008,-111.79229,-54.1437
1.819e-008,-111.09007,-37.682373
1.82e-008,-110.40504,-21.337925
1.821e-008,-109.73881,-5.0909095
1.822e-008,-109.09164,11.077718
1.823e-008,-108.46481,27.18182
1.824e-008,-107.85807,43.235054
1.825e-008,-107.27162,59.249714
1.826e-008,-106.70571,75.233475
1.827e-008,-106.16011,91.193893
1.828e-008,-105.63459,107.13725
1.829e-008,-105.12898,123.06886
1.83e-008,-104.64304,138.99309
1.831e-008,-104.17638,154.91322
1.832e-008,-103.72855,170.83331
1.833e-008,-103.29955,-173.2459
1.834e-008,-102.88872,-157.32138
1.835e-008,-102.49576,-141.39204
1.836e-008,-102.12039,-125.45555
1.837e-008,-101.76218,-109.51088
1.838e-008,-101.4208,-93.558136
1.839e-008,-101.09581,-77.595352
1.84e-008,-100.78693,-61.622704
1.841e-008,-100.49381,-45.63884
1.842e-008,-100.21604,-29.643988
1.843e-008,-99.953323,-13.637692
1.844e-008,-99.705345,2.3812099
1.845e-008,-99.471771,18.412085
1.846e-008,-99.25222,34.455513
1.847e-008,-99.046432,50.511898
1.848e-008,-98.85408,66.581673
1.849e-008,-98.674866,82.66465
1.85e-008,-98.508453,98.7612
1.851e-008,-98.354576,114.87151
1.852e-008,-98.212967,130.99602
1.853e-008,-98.083328,147.13503
1.854e-008,-97.965355,163.28847
1.855e-008,-97.858757,179.45689
1.856e-008,-97.763329,-164.35957
1.857e-008,-97.678772,-148.16048
1.858e-008,-97.60479,-131.94553
1.859e-008,-97.541138,-115.71447
1.86e-008,-97.487587,-99.466644
1.861e-008,-97.44384,-83.201988
1.862e-008,-97.409668,-66.919792
1.863e-008,-97.384819,-50.619694
1.864e-008,-97.369026,-34.301373
1.865e-008,-97.362076,-17.964102
1.866e-008,-97.363739,-1.6071988
1.867e-008,-97.373703,14.769648
1.868e-008,-97.391792,31.167103
1.869e-008,-97.417747,47.585995
1.87e-008,-97.451355,64.026855
1.871e-008,-97.492393,80.490662
1.872e-008,-97.540619,96.977852
1.873e-008,-97.595787,113.48946
1.874e-008,-97.6577,130.02631
1.875e-008,-97.726135,146.58946
1.876e-008,-97.800865,163.17967
1.877e-008,-97.881645,179.7981
1.878e-008,-97.9683,-163.55431
1.879e-008,-98.060585,-146.87621
1.88e-008,-98.158272,-130.16661
1.881e-008,-98.261154,-113.4241
1.882e-008,-98.369003,-96.647713
1.883e-008,-98.481544,-79.835495
1.884e-008,-98.598595,-62.986511
1.885e-008,-98.719864,-46.099155
1.886e-008,-98.845123,-29.172062
1.887e-008,-98.974136,-12.20334
1.888e-008,-99.106529,4.8084822
1.889e-008,-99.242065,21.864948
1.89e-008,-99.380386,38.967594
1.891e-008,-99.521179,56.118279
1.892e-008,-99.66407,73.318535
1.893e-008,-99.808624,90.569832
1.894e-008,-99.954422,107.87386
1.895e-008,-100.10103,125.23174
1.896e-008,-100.24786,142.64471
1.897e-008,-100.39443,160.11375
1.898e-008,-100.54009,177.63954
1.899e-008,-100.68433,-164.7774
1.9e-008,-100.82634,-147.13727
1.901e-008,-100.96555,-129.44038
1.902e-008,-101.10111,-111.68798
1.903e-008,-101.23238,-93.881805
1.904e-008,-101.35851,-76.023499
1.905e-008,-101.4788,-58.117054
1.906e-008,-101.59252,-40.165199
1.907e-008,-101.69892,-22.173458
1.908e-008,-101.79741,-4.1465569
1.909e-008,-101.88738,13.908961
1.91e-008,-101.96839,31.986568
1.911e-008,-102.04003,50.078724
1.912e-008,-102.10212,68.177368
1.913e-008,-102.15449,86.273758
1.914e-008,-102.19727,104.3597
1.915e-008,-102.23067,122.42612
1.916e-008,-102.25502,140.46452
1.917e-008,-102.27091,158.46609
1.918e-008,-102.27894,176.42323
1.919e-008,-102.27988,-165.6725
1.92e-008,-102.27467,-147.82712
1.921e-008,-102.26427,-130.04767
1.922e-008,-102.24972,-112.33957
1.923e-008,-102.23209,-94.707787
1.924e-008,-102.21255,-77.156746
1.925e-008,-102.19214,-59.689762
1.926e-008,-102.17209,-42.310078
1.927e-008,-102.15336,-25.019613
1.928e-008,-102.13711,-7.8209748
1.929e-008,-102.12429,9.2848902
1.93e-008,-102.11605,26.296619
1.931e-008,-102.11309,43.213238
1.932e-008,-102.11643,60.033619
1.933e-008,-102.12685,76.757301
1.934e-008,-102.14513,93.383446
1.935e-008,-102.17198,109.91131
1.936e-008,-102.20808,126.3392
1.937e-008,-102.254,142.66685
1.938e-008,-102.31033,158.89201
1.939e-008,-102.37755,175.01344
1.94e-008,-102.45605,-168.97147
1.941e-008,-102.54632,-153.06529
1.942e-008,-102.64861,-137.27194
1.943e-008,-102.76331,-121.59393
1.944e-008,-102.89045,-106.03683
1.945e-008,-103.03022,-90.605141
1.946e-008,-103.18257,-75.305611
1.947e-008,-103.34744,-60.144104
1.948e-008,-103.52459,-45.128948
1.949e-008,-103.71349,-30.268278
1.95e-008,-103.91354,-15.572114
1.951e-008,-104.12387,-1.0496629
1.952e-008,-104.34322,13.286711
1.953e-008,-104.57,27.426695
1.954e-008,-104.80231,41.357624
1.955e-008,-105.03757,55.068348
1.956e-008,-105.27267,68.547966
1.957e-008,-105.50403,81.78833
1.958e-008,-105.72722,94.783257
1.959e-008,-105.93757,107.5299
1.96e-008,-106.12946,120.03469
1.961e-008,-106.29733,132.30807
1.962e-008,-106.43542,144.36943
1.963e-008,-106.5383,156.24823
1.964e-008,-106.6014,167.98222
1.965e-008,-106.62139,179.61604
1.966e-008,-106.59621,-168.79977
1.967e-008,-106.52583,-157.21375
1.968e-008,-106.41192,-145.57532
1.969e-008,-106.25742,-133.84024
1.97e-008,-106.06685,-121.97028
1.971e-008,-105.84526,-109.93633
1.972e-008,-105.59814,-97.718864
1.973e-008,-105.33094,-85.306435
1.974e-008,-105.04889,-72.694893
1.975e-008,-104.75654,-59.885838
1.976e-008,-104.45811,-46.885609
1.977e-008,-104.15694,-33.703129
1.978e-008,-103.85599,-20.349676
1.979e-008,-103.55755,-6.8366194
1.98e-008,-103.26348,6.8234758
1.981e-008,-102.97511,20.618372
1.982e-008,-102.69364,34.536255
1.983e-008,-102.41978,48.566677
1.984e-008,-102.15405,62.699013
1.985e-008,-101.89682,76.923958
1.986e-008,-101.64828,91.233055
1.987e-008,-101.40852,105.61816
1.988e-008,-101.17752,120.07252
1.989e-008,-100.95518,134.58968
1.99e-008,-100.74137,149.16347
1.991e-008,-100.53594,163.78886
1.992e-008,-100.33866,178.46124
1.993e-008,-100.14931,-166.82376
1.994e-008,-99.967644,-152.07028
1.995e-008,-99.793404,-137.28183
1.996e-008,-99.626389,-122.46198
1.997e-008,-99.466301,-107.61331
1.998e-008,-99.312904,-92.738937
1.999e-008,-99.166,-77.841492
2e-008,-99.025291,-62.923714
END

