!CSV A.01.01
!Keysight Technologies,N5227B,US58420762,A.13.80.08
!Date: Monday, November 20, 2023 15:20:09
!Source: Standard

BEGIN CH1_DATA
Time(s),S21(DB),S21(DEG)
1e-008,-122.59129,-173.93799
1.001e-008,-123.36898,-157.31067
1.002e-008,-124.31556,-140.7756
1.003e-008,-125.47937,-124.36695
1.004e-008,-126.93427,-108.0984
1.005e-008,-128.80653,-92.091049
1.006e-008,-131.34529,-76.535522
1.007e-008,-135.14214,-62.218365
1.008e-008,-142.32767,-53.885086
1.009e-008,-149.28465,-169.24316
1.01e-008,-137.41493,-178.31799
1.011e-008,-132.38972,-165.44444
1.012e-008,-129.20171,-150.38063
1.013e-008,-126.87656,-134.66518
1.014e-008,-125.05899,-118.6813
1.015e-008,-123.57867,-102.55238
1.016e-008,-122.34286,-86.334618
1.017e-008,-121.29498,-70.060471
1.018e-008,-120.39655,-53.747066
1.019e-008,-119.62247,-37.403725
1.02e-008,-118.95351,-21.034893
1.021e-008,-118.37637,-4.6394353
1.022e-008,-117.88132,11.778566
1.023e-008,-117.46037,28.22051
1.024e-008,-117.10674,44.68565
1.025e-008,-116.81688,61.18013
1.026e-008,-116.58658,77.705276
1.027e-008,-116.4136,94.264153
1.028e-008,-116.29559,110.8657
1.029e-008,-116.23101,127.50941
1.03e-008,-116.21952,144.20731
1.031e-008,-116.26093,160.96571
1.032e-008,-116.3549,177.79433
1.033e-008,-116.50221,-165.28966
1.034e-008,-116.70406,-148.27579
1.035e-008,-116.96198,-131.13707
1.036e-008,-117.27795,-113.8563
1.037e-008,-117.65379,-96.396889
1.038e-008,-118.09266,-78.719551
1.039e-008,-118.5976,-60.770176
1.04e-008,-119.17178,-42.483009
1.041e-008,-119.8168,-23.760527
1.042e-008,-120.53457,-4.4868064
1.043e-008,-121.32152,15.497536
1.044e-008,-122.1686,36.396149
1.045e-008,-123.05225,58.462498
1.046e-008,-123.92802,81.95816
1.047e-008,-124.71828,107.07664
1.048e-008,-125.31654,133.76991
1.049e-008,-125.6099,161.51215
1.05e-008,-125.54121,-170.61923
1.051e-008,-125.14487,-143.64464
1.052e-008,-124.52332,-118.19292
1.053e-008,-123.79214,-94.435059
1.054e-008,-123.03667,-72.227692
1.055e-008,-122.3103,-51.314091
1.056e-008,-121.64017,-31.433781
1.057e-008,-121.04124,-12.380064
1.058e-008,-120.51614,6.0181975
1.059e-008,-120.06633,23.878729
1.06e-008,-119.68948,41.302635
1.061e-008,-119.38284,58.351517
1.062e-008,-119.14394,75.07283
1.063e-008,-118.97038,91.498032
1.064e-008,-118.8592,107.64726
1.065e-008,-118.80893,123.53635
1.066e-008,-118.81746,139.16068
1.067e-008,-118.88374,154.51704
1.068e-008,-119.0053,169.59065
1.069e-008,-119.18098,-175.63773
1.07e-008,-119.40841,-161.20068
1.071e-008,-119.68465,-147.13524
1.072e-008,-120.0052,-133.49388
1.073e-008,-120.3646,-120.32182
1.074e-008,-120.75237,-107.68891
1.075e-008,-121.15704,-95.649712
1.076e-008,-121.55928,-84.257156
1.077e-008,-121.93676,-73.538445
1.078e-008,-122.26154,-63.463181
1.079e-008,-122.50453,-53.950855
1.08e-008,-122.64005,-44.830727
1.081e-008,-122.65231,-35.856091
1.082e-008,-122.54118,-26.775602
1.083e-008,-122.32024,-17.339005
1.084e-008,-122.01453,-7.3702669
1.085e-008,-121.65318,3.2261882
1.086e-008,-121.26461,14.483655
1.087e-008,-120.87312,26.381809
1.088e-008,-120.49616,38.864887
1.089e-008,-120.14889,51.879929
1.09e-008,-119.84003,65.357094
1.091e-008,-119.57704,79.244858
1.092e-008,-119.36409,93.494308
1.093e-008,-119.20531,108.06173
1.094e-008,-119.10305,122.91665
1.095e-008,-119.05975,138.03383
1.096e-008,-119.07795,153.39249
1.097e-008,-119.15982,168.9901
1.098e-008,-119.30856,-175.17856
1.099e-008,-119.52751,-159.10593
1.1e-008,-119.8214,-142.77631
1.101e-008,-120.19517,-126.1598
1.102e-008,-120.65495,-109.21127
1.103e-008,-121.20891,-91.859367
1.104e-008,-121.86641,-74.008224
1.105e-008,-122.6351,-55.499321
1.106e-008,-123.52625,-36.119331
1.107e-008,-124.54168,-15.522023
1.108e-008,-125.66717,6.7829561
1.109e-008,-126.84752,31.478731
1.11e-008,-127.93636,59.290325
1.111e-008,-128.66292,90.357697
1.112e-008,-128.72342,123.2449
1.113e-008,-128.06548,155.14185
1.114e-008,-126.94187,-175.95018
1.115e-008,-125.65711,-150.27286
1.116e-008,-124.39378,-127.19103
1.117e-008,-123.22862,-105.9696
1.118e-008,-122.18542,-86.063004
1.119e-008,-121.26384,-67.081535
1.12e-008,-120.45565,-48.769238
1.121e-008,-119.7514,-30.948668
1.122e-008,-119.14107,-13.506333
1.123e-008,-118.61705,3.6439483
1.124e-008,-118.17223,20.564251
1.125e-008,-117.80054,37.293411
1.126e-008,-117.4975,53.861923
1.127e-008,-117.25916,70.293137
1.128e-008,-117.08253,86.603622
1.129e-008,-116.96556,102.80462
1.13e-008,-116.90641,118.90131
1.131e-008,-116.90378,134.90147
1.132e-008,-116.9575,150.8035
1.133e-008,-117.06694,166.6053
1.134e-008,-117.23262,-177.69312
1.135e-008,-117.45522,-162.10512
1.136e-008,-117.73569,-146.63889
1.137e-008,-118.07583,-131.30658
1.138e-008,-118.4772,-116.12775
1.139e-008,-118.94264,-101.12923
1.14e-008,-119.4744,-86.343971
1.141e-008,-120.07568,-71.80896
1.142e-008,-120.74975,-57.581734
1.143e-008,-121.49935,-43.732826
1.144e-008,-122.32642,-30.357521
1.145e-008,-123.23003,-17.571939
1.146e-008,-124.20592,-5.5295153
1.147e-008,-125.24072,5.579401
1.148e-008,-126.30836,15.544769
1.149e-008,-127.36044,24.175343
1.15e-008,-128.32553,31.406931
1.151e-008,-129.11464,37.414047
1.152e-008,-129.65033,42.762486
1.153e-008,-129.9113,48.271858
1.154e-008,-129.94762,54.734955
1.155e-008,-129.85562,62.619427
1.156e-008,-129.7337,72.057518
1.157e-008,-129.66656,82.979698
1.158e-008,-129.71378,95.226372
1.159e-008,-129.92462,108.68499
1.16e-008,-130.34262,123.31976
1.161e-008,-131.01971,139.25705
1.162e-008,-132.02203,156.85103
1.163e-008,-133.43652,176.99463
1.164e-008,-135.34813,-158.20303
1.165e-008,-137.5686,-123.97845
1.166e-008,-138.53769,-75.613922
1.167e-008,-136.4223,-27.589457
1.168e-008,-133.1624,6.5598955
1.169e-008,-130.22505,31.908905
1.17e-008,-127.76746,53.102448
1.171e-008,-125.69937,72.247658
1.172e-008,-123.93188,90.266685
1.173e-008,-122.39685,107.62084
1.174e-008,-121.04807,124.55033
1.175e-008,-119.85204,141.20337
1.176e-008,-118.785,157.66139
1.177e-008,-117.8282,173.97774
1.178e-008,-116.96803,-169.80849
1.179e-008,-116.19344,-153.67737
1.18e-008,-115.49619,-137.61003
1.181e-008,-114.86916,-121.59534
1.182e-008,-114.30692,-105.62881
1.183e-008,-113.80503,-89.700897
1.184e-008,-113.35981,-73.811256
1.185e-008,-112.96811,-57.957413
1.186e-008,-112.6276,-42.141109
1.187e-008,-112.33627,-26.360052
1.188e-008,-112.0927,-10.615547
1.189e-008,-111.89548,5.0875273
1.19e-008,-111.74368,20.747164
1.191e-008,-111.63667,36.35828
1.192e-008,-111.57428,51.916405
1.193e-008,-111.55624,67.413376
1.194e-008,-111.58274,82.841927
1.195e-008,-111.65395,98.191757
1.196e-008,-111.77075,113.45232
1.197e-008,-111.93355,128.60698
1.198e-008,-112.14357,143.63875
1.199e-008,-112.40152,158.52602
1.2e-008,-112.70882,173.24254
1.201e-008,-113.06654,-172.24689
1.202e-008,-113.47572,-157.98059
1.203e-008,-113.93652,-144.01222
1.204e-008,-114.44865,-130.40239
1.205e-008,-115.01056,-117.23138
1.206e-008,-115.61675,-104.59083
1.207e-008,-116.25781,-92.592087
1.208e-008,-116.91882,-81.34977
1.209e-008,-117.57339,-70.987968
1.21e-008,-118.18433,-61.578041
1.211e-008,-118.70364,-53.104454
1.212e-008,-119.07793,-45.402512
1.213e-008,-119.26448,-38.140205
1.214e-008,-119.24686,-30.847969
1.215e-008,-119.04103,-23.06529
1.216e-008,-118.69209,-14.447866
1.217e-008,-118.25264,-4.8360724
1.218e-008,-117.77211,5.7920198
1.219e-008,-117.28854,17.366776
1.22e-008,-116.82902,29.772884
1.221e-008,-116.40925,42.900269
1.222e-008,-116.03995,56.640903
1.223e-008,-115.72611,70.915596
1.224e-008,-115.47157,85.651093
1.225e-008,-115.27652,100.79984
1.226e-008,-115.14222,116.32305
1.227e-008,-115.06756,132.19896
1.228e-008,-115.05294,148.41951
1.229e-008,-115.09684,164.97914
1.23e-008,-115.19839,-178.11031
1.231e-008,-115.35614,-160.83047
1.232e-008,-115.56834,-143.14537
1.233e-008,-115.83131,-125.01944
1.234e-008,-116.13988,-106.39314
1.235e-008,-116.48595,-87.207413
1.236e-008,-116.85883,-67.391052
1.237e-008,-117.24017,-46.882072
1.238e-008,-117.60821,-25.634335
1.239e-008,-117.93286,-3.6386065
1.24e-008,-118.18073,19.039228
1.241e-008,-118.31961,42.244076
1.242e-008,-118.32603,65.726982
1.243e-008,-118.19353,89.189117
1.244e-008,-117.93182,112.3373
1.245e-008,-117.56813,134.94179
1.246e-008,-117.13502,156.87172
1.247e-008,-116.66592,178.08208
1.248e-008,-116.1881,-161.4075
1.249e-008,-115.72375,-141.5435
1.25e-008,-115.28809,-122.25352
1.251e-008,-114.89188,-103.46828
1.252e-008,-114.54252,-85.122169
1.253e-008,-114.24397,-67.157356
1.254e-008,-114.00022,-49.526218
1.255e-008,-113.81348,-32.193344
1.256e-008,-113.68442,-15.130137
1.257e-008,-113.61519,1.6840184
1.258e-008,-113.60732,18.263153
1.259e-008,-113.66283,34.611084
1.26e-008,-113.78321,50.729786
1.261e-008,-113.97161,66.605179
1.262e-008,-114.2309,82.218758
1.263e-008,-114.56493,97.542015
1.264e-008,-114.97791,112.52601
1.265e-008,-115.47459,127.10773
1.266e-008,-116.06049,141.19058
1.267e-008,-116.73917,154.64673
1.268e-008,-117.51227,167.28893
1.269e-008,-118.37478,178.86365
1.27e-008,-119.30563,-170.96619
1.271e-008,-120.25524,-162.61209
1.272e-008,-121.12316,-156.43275
1.273e-008,-121.75105,-152.43889
1.274e-008,-121.96655,-149.89029
1.275e-008,-121.69446,-147.30042
1.276e-008,-121.02083,-143.21832
1.277e-008,-120.12188,-136.96733
1.278e-008,-119.15246,-128.59662
1.279e-008,-118.20963,-118.47989
1.28e-008,-117.34151,-107.02425
1.281e-008,-116.56779,-94.565964
1.282e-008,-115.89441,-81.357239
1.283e-008,-115.32069,-67.579704
1.284e-008,-114.84368,-53.366039
1.285e-008,-114.46033,-38.813923
1.286e-008,-114.16771,-23.991167
1.287e-008,-113.96408,-8.9507284
1.288e-008,-113.84884,6.2698998
1.289e-008,-113.82256,21.641953
1.29e-008,-113.88738,37.145199
1.291e-008,-114.0479,52.766083
1.292e-008,-114.31007,68.49601
1.293e-008,-114.68361,84.329475
1.294e-008,-115.18128,100.27499
1.295e-008,-115.8225,116.34215
1.296e-008,-116.63442,132.55489
1.297e-008,-117.65785,148.96327
1.298e-008,-118.95667,165.65486
1.299e-008,-120.63698,-177.17651
1.3e-008,-122.89547,-159.09869
1.301e-008,-126.15355,-138.80661
1.302e-008,-131.51921,-110.37429
1.303e-008,-138.53162,-25.053278
1.304e-008,-130.6505,51.498108
1.305e-008,-125.29745,78.609901
1.306e-008,-121.90262,98.661186
1.307e-008,-119.45238,116.71046
1.308e-008,-117.55588,133.93205
1.309e-008,-116.02724,150.73215
1.31e-008,-114.7648,167.28517
1.311e-008,-113.70622,-176.3172
1.312e-008,-112.81192,-160.02652
1.313e-008,-112.05487,-143.81371
1.314e-008,-111.41579,-127.66219
1.315e-008,-110.88108,-111.56163
1.316e-008,-110.44071,-95.504372
1.317e-008,-110.08746,-79.48835
1.318e-008,-109.81636,-63.51236
1.319e-008,-109.62362,-47.578762
1.32e-008,-109.50729,-31.688042
1.321e-008,-109.46658,-15.847562
1.322e-008,-109.502,-0.062878914
1.323e-008,-109.6149,15.654423
1.324e-008,-109.80824,31.292461
1.325e-008,-110.08626,46.832699
1.326e-008,-110.45513,62.247887
1.327e-008,-110.92263,77.505325
1.328e-008,-111.49979,92.554314
1.329e-008,-112.20093,107.32132
1.33e-008,-113.04509,121.69633
1.331e-008,-114.05747,135.50444
1.332e-008,-115.27059,148.45738
1.333e-008,-116.72497,160.05379
1.334e-008,-118.45883,169.36891
1.335e-008,-120.4525,174.6812
1.336e-008,-122.42641,173.21243
1.337e-008,-123.45146,163.80424
1.338e-008,-122.6413,153.75951
1.339e-008,-120.73385,151.3438
1.34e-008,-118.73785,156.09558
1.341e-008,-116.9929,165.17371
1.342e-008,-115.53397,176.72928
1.343e-008,-114.32765,-170.22655
1.344e-008,-113.33514,-156.22969
1.345e-008,-112.52367,-141.582
1.346e-008,-111.86926,-126.4605
1.347e-008,-111.35464,-110.97144
1.348e-008,-110.96716,-95.179077
1.349e-008,-110.69878,-79.118729
1.35e-008,-110.54456,-62.806324
1.351e-008,-110.50202,-46.238579
1.352e-008,-110.57179,-29.395704
1.353e-008,-110.75632,-12.240039
1.354e-008,-111.06069,5.2899547
1.355e-008,-111.49178,23.291914
1.356e-008,-112.05883,41.911488
1.357e-008,-112.77051,61.371853
1.358e-008,-113.63212,82.007126
1.359e-008,-114.63432,104.32997
1.36e-008,-115.72653,129.06833
1.361e-008,-116.76577,157.05
1.362e-008,-117.46268,-171.42441
1.363e-008,-117.47246,-137.79778
1.364e-008,-116.71564,-105.17542
1.365e-008,-115.47543,-75.82402
1.366e-008,-114.09011,-49.985085
1.367e-008,-112.75691,-26.92115
1.368e-008,-111.55605,-5.8319645
1.369e-008,-110.51022,13.865836
1.37e-008,-109.61942,32.566292
1.371e-008,-108.87727,50.517303
1.372e-008,-108.27663,67.879433
1.373e-008,-107.81249,84.747154
1.374e-008,-107.48219,101.17189
1.375e-008,-107.2862,117.16269
1.376e-008,-107.2281,132.6967
1.377e-008,-107.31527,147.70575
1.378e-008,-107.55872,162.06735
1.379e-008,-107.9721,175.57034
1.38e-008,-108.57017,-172.13161
1.381e-008,-109.35883,-161.61288
1.382e-008,-110.30734,-153.79694
1.383e-008,-111.27367,-149.98291
1.384e-008,-111.87727,-151.10576
1.385e-008,-111.56319,-155.46526
1.386e-008,-110.19366,-158.25221
1.387e-008,-108.24932,-156.33064
1.388e-008,-106.20841,-149.96875
1.389e-008,-104.28487,-140.49931
1.39e-008,-102.53598,-129.00627
1.391e-008,-100.96115,-116.18843
1.392e-008,-99.544067,-102.47584
1.393e-008,-98.265869,-88.136284
1.394e-008,-97.110023,-73.341049
1.395e-008,-96.062637,-58.202011
1.396e-008,-95.112633,-42.794872
1.397e-008,-94.251205,-27.170774
1.398e-008,-93.471458,-11.365107
1.399e-008,-92.767998,4.5983973
1.4e-008,-92.136879,20.704376
1.401e-008,-91.575142,36.94416
1.402e-008,-91.080971,53.314594
1.403e-008,-90.65332,69.817665
1.404e-008,-90.292122,86.460587
1.405e-008,-89.998108,103.25598
1.406e-008,-89.772911,120.22314
1.407e-008,-89.619019,137.38963
1.408e-008,-89.539932,154.79381
1.409e-008,-89.540062,172.48871
1.41e-008,-89.624763,-169.45219
1.411e-008,-89.799988,-150.92575
1.412e-008,-90.071594,-131.78629
1.413e-008,-90.443253,-111.82558
1.414e-008,-90.912086,-90.747139
1.415e-008,-91.458702,-68.139778
1.416e-008,-92.027977,-43.482738
1.417e-008,-92.498894,-16.281178
1.418e-008,-92.667488,13.510564
1.419e-008,-92.312523,44.875851
1.42e-008,-91.36319,75.82869
1.421e-008,-89.968704,104.66586
1.422e-008,-88.358658,130.84715
1.423e-008,-86.704369,154.66904
1.424e-008,-85.095734,176.66861
1.425e-008,-83.569473,-162.67068
1.426e-008,-82.135483,-142.98404
1.427e-008,-80.791924,-124.01237
1.428e-008,-79.532471,-105.57348
1.429e-008,-78.349594,-87.538742
1.43e-008,-77.23587,-69.816002
1.431e-008,-76.184532,-52.3381
1.432e-008,-75.189606,-35.055344
1.433e-008,-74.245865,-17.930281
1.434e-008,-73.348801,-0.93430477
1.435e-008,-72.494484,15.954836
1.436e-008,-71.679527,32.754581
1.437e-008,-70.900978,49.478806
1.438e-008,-70.156242,66.138702
1.439e-008,-69.443062,82.743355
1.44e-008,-68.759422,99.300217
1.441e-008,-68.103577,115.81541
1.442e-008,-67.473946,132.2941
1.443e-008,-66.869125,148.74059
1.444e-008,-66.287849,165.15851
1.445e-008,-65.729012,-178.44904
1.446e-008,-65.191574,-162.07939
1.447e-008,-64.674622,-145.7303
1.448e-008,-64.177307,-129.39978
1.449e-008,-63.698887,-113.08613
1.45e-008,-63.238647,-96.787888
1.451e-008,-62.795963,-80.503738
1.452e-008,-62.370239,-64.232552
1.453e-008,-61.960945,-47.973331
1.454e-008,-61.567581,-31.725187
1.455e-008,-61.189697,-15.487336
1.456e-008,-60.82687,0.74088991
1.457e-008,-60.478703,16.960117
1.458e-008,-60.144836,33.170895
1.459e-008,-59.82494,49.373703
1.46e-008,-59.518692,65.568985
1.461e-008,-59.225807,81.757103
1.462e-008,-58.946014,97.938408
1.463e-008,-58.679062,114.11324
1.464e-008,-58.424717,130.28181
1.465e-008,-58.182755,146.44443
1.466e-008,-57.95298,162.60123
1.467e-008,-57.735195,178.75249
1.468e-008,-57.529224,-165.10168
1.469e-008,-57.334904,-148.96112
1.47e-008,-57.152077,-132.82568
1.471e-008,-56.980606,-116.69527
1.472e-008,-56.820347,-100.5698
1.473e-008,-56.671185,-84.449181
1.474e-008,-56.533001,-68.333359
1.475e-008,-56.405685,-52.222263
1.476e-008,-56.289146,-36.115871
1.477e-008,-56.183285,-20.014149
1.478e-008,-56.08802,-3.9170818
1.479e-008,-56.003277,12.175332
1.48e-008,-55.928986,28.263084
1.481e-008,-55.865078,44.346161
1.482e-008,-55.811501,60.424534
1.483e-008,-55.7682,76.498161
1.484e-008,-55.73513,92.567001
1.485e-008,-55.712254,108.63099
1.486e-008,-55.699535,124.69006
1.487e-008,-55.696938,140.74414
1.488e-008,-55.704449,156.79312
1.489e-008,-55.722042,172.83693
1.49e-008,-55.749706,-171.12456
1.491e-008,-55.78743,-155.09146
1.492e-008,-55.835213,-139.06392
1.493e-008,-55.893051,-123.04206
1.494e-008,-55.960953,-107.02606
1.495e-008,-56.038929,-91.016075
1.496e-008,-56.126991,-75.012299
1.497e-008,-56.225159,-59.014919
1.498e-008,-56.333458,-43.024162
1.499e-008,-56.451916,-27.040241
1.5e-008,-56.580566,-11.063413
1.501e-008,-56.719448,4.9060645
1.502e-008,-56.868603,20.867899
1.503e-008,-57.028076,36.821812
1.504e-008,-57.197918,52.767448
1.505e-008,-57.378189,68.704475
1.506e-008,-57.568951,84.63253
1.507e-008,-57.770264,100.55119
1.508e-008,-57.982204,116.46005
1.509e-008,-58.204842,132.35863
1.51e-008,-58.438263,148.24648
1.511e-008,-58.682549,164.123
1.512e-008,-58.93779,179.98769
1.513e-008,-59.204082,-164.1601
1.514e-008,-59.481529,-148.321
1.515e-008,-59.770226,-132.49573
1.516e-008,-60.07029,-116.68503
1.517e-008,-60.381832,-100.88974
1.518e-008,-60.704975,-85.110725
1.519e-008,-61.039837,-69.34893
1.52e-008,-61.386547,-53.605408
1.521e-008,-61.745239,-37.881245
1.522e-008,-62.116051,-22.177643
1.523e-008,-62.499119,-6.4959054
1.524e-008,-62.894585,9.1625576
1.525e-008,-63.302593,24.796232
1.526e-008,-63.723293,40.403454
1.527e-008,-64.15683,55.98243
1.528e-008,-64.60334,71.531212
1.529e-008,-65.062981,87.047676
1.53e-008,-65.535881,102.52951
1.531e-008,-66.022186,117.97418
1.532e-008,-66.522011,133.379
1.533e-008,-67.035469,148.74092
1.534e-008,-67.56266,164.05678
1.535e-008,-68.103653,179.32295
1.536e-008,-68.658501,-165.46434
1.537e-008,-69.227219,-150.30927
1.538e-008,-69.809784,-135.21642
1.539e-008,-70.40612,-120.19065
1.54e-008,-71.016083,-105.23729
1.541e-008,-71.639458,-90.36203
1.542e-008,-72.27594,-75.571014
1.543e-008,-72.925117,-60.87075
1.544e-008,-73.586426,-46.268116
1.545e-008,-74.259178,-31.770325
1.546e-008,-74.94249,-17.384819
1.547e-008,-75.635262,-3.1191616
1.548e-008,-76.336174,11.019152
1.549e-008,-77.04364,25.022898
1.55e-008,-77.755775,38.885498
1.551e-008,-78.47039,52.601295
1.552e-008,-79.18499,66.166191
1.553e-008,-79.896782,79.577911
1.554e-008,-80.602669,92.836899
1.555e-008,-81.299377,105.94658
1.556e-008,-81.983498,118.91414
1.557e-008,-82.651611,131.75079
1.558e-008,-83.300461,144.472
1.559e-008,-83.927086,157.09723
1.56e-008,-84.52903,169.64963
1.561e-008,-85.104416,-177.845
1.562e-008,-85.652122,-165.3593
1.563e-008,-86.171776,-152.86563
1.564e-008,-86.663757,-140.33768
1.565e-008,-87.129074,-127.75157
1.566e-008,-87.569283,-115.08704
1.567e-008,-87.986259,-102.32784
1.568e-008,-88.382019,-89.462402
1.569e-008,-88.758621,-76.48365
1.57e-008,-89.117935,-63.388386
1.571e-008,-89.461548,-50.177322
1.572e-008,-89.790695,-36.853966
1.573e-008,-90.106239,-23.424137
1.574e-008,-90.408607,-9.8952656
1.575e-008,-90.697807,3.7243676
1.576e-008,-90.973518,17.425856
1.577e-008,-91.235039,31.20071
1.578e-008,-91.481445,45.040737
1.579e-008,-91.711647,58.938995
1.58e-008,-91.92437,72.889397
1.581e-008,-92.118431,86.887695
1.582e-008,-92.292641,100.93073
1.583e-008,-92.445992,115.01719
1.584e-008,-92.577721,129.14714
1.585e-008,-92.687363,143.32188
1.586e-008,-92.774803,157.54393
1.587e-008,-92.840324,171.81618
1.588e-008,-92.88459,-173.85779
1.589e-008,-92.908661,-159.47441
1.59e-008,-92.913979,-145.03044
1.591e-008,-92.902283,-130.52315
1.592e-008,-92.875542,-115.95026
1.593e-008,-92.836006,-101.31076
1.594e-008,-92.785988,-86.604286
1.595e-008,-92.72789,-71.831352
1.596e-008,-92.664185,-56.993401
1.597e-008,-92.597275,-42.092506
1.598e-008,-92.529533,-27.131319
1.599e-008,-92.463242,-12.113317
1.6e-008,-92.400536,2.958194
1.601e-008,-92.343491,18.079077
1.602e-008,-92.29406,33.245476
1.603e-008,-92.254021,48.452984
1.604e-008,-92.225098,63.697765
1.605e-008,-92.208855,78.975754
1.606e-008,-92.206802,94.282547
1.607e-008,-92.220367,109.61466
1.608e-008,-92.25087,124.96786
1.609e-008,-92.299629,140.33862
1.61e-008,-92.367943,155.72327
1.611e-008,-92.457001,171.11804
1.612e-008,-92.568123,-173.48048
1.613e-008,-92.702553,-158.07613
1.614e-008,-92.861679,-142.67233
1.615e-008,-93.046883,-127.27322
1.616e-008,-93.259659,-111.88251
1.617e-008,-93.501717,-96.504967
1.618e-008,-93.774895,-81.144913
1.619e-008,-94.081184,-65.808075
1.62e-008,-94.422981,-50.500599
1.621e-008,-94.802925,-35.229652
1.622e-008,-95.224228,-20.003864
1.623e-008,-95.690491,-4.8340878
1.624e-008,-96.206108,10.266352
1.625e-008,-96.77636,25.280296
1.626e-008,-97.407692,40.185455
1.627e-008,-98.107994,54.951923
1.628e-008,-98.88726,69.5382
1.629e-008,-99.757942,83.886055
1.63e-008,-100.73628,97.909317
1.631e-008,-101.84311,111.47791
1.632e-008,-103.10557,124.38545
1.633e-008,-104.55788,136.28584
1.634e-008,-106.23921,146.56987
1.635e-008,-108.17367,154.12128
1.636e-008,-110.28617,156.92336
1.637e-008,-112.12872,152.31613
1.638e-008,-112.65313,141.36632
1.639e-008,-111.45618,133.00529
1.64e-008,-109.5304,132.50633
1.641e-008,-107.63841,138.0766
1.642e-008,-105.98582,147.21806
1.643e-008,-104.57732,158.42906
1.644e-008,-103.37638,170.89661
1.645e-008,-102.34544,-175.83009
1.646e-008,-101.45354,-162.01324
1.647e-008,-100.67694,-147.81424
1.648e-008,-99.997055,-133.3369
1.649e-008,-99.399643,-118.64946
1.65e-008,-98.873299,-103.79951
1.651e-008,-98.409142,-88.820641
1.652e-008,-97.99987,-73.736557
1.653e-008,-97.639549,-58.565479
1.654e-008,-97.323265,-43.319965
1.655e-008,-97.046928,-28.010143
1.656e-008,-96.807053,-12.643291
1.657e-008,-96.600716,2.7752681
1.658e-008,-96.425377,18.241125
1.659e-008,-96.278862,33.751637
1.66e-008,-96.159264,49.304646
1.661e-008,-96.064941,64.89856
1.662e-008,-95.994423,80.533157
1.663e-008,-95.946457,96.207771
1.664e-008,-95.919876,111.92252
1.665e-008,-95.913734,127.67792
1.666e-008,-95.927071,143.47467
1.667e-008,-95.959145,159.31375
1.668e-008,-96.009247,175.19623
1.669e-008,-96.076744,-168.87646
1.67e-008,-96.161072,-152.90321
1.671e-008,-96.261803,-136.88196
1.672e-008,-96.378448,-120.81158
1.673e-008,-96.510689,-104.69031
1.674e-008,-96.658195,-88.516396
1.675e-008,-96.820709,-72.288124
1.676e-008,-96.998077,-56.003769
1.677e-008,-97.190071,-39.661911
1.678e-008,-97.39669,-23.260592
1.679e-008,-97.617874,-6.7982488
1.68e-008,-97.853668,9.7263422
1.681e-008,-98.104218,26.314943
1.682e-008,-98.369675,42.968918
1.683e-008,-98.650414,59.689804
1.684e-008,-98.946854,76.478722
1.685e-008,-99.259476,93.337418
1.686e-008,-99.589035,110.26711
1.687e-008,-99.936394,127.27018
1.688e-008,-100.30265,144.34802
1.689e-008,-100.68914,161.5036
1.69e-008,-101.09746,178.74016
1.691e-008,-101.52965,-163.93776
1.692e-008,-101.98806,-146.52477
1.693e-008,-102.4756,-129.01306
1.694e-008,-102.99572,-111.3924
1.695e-008,-103.55273,-93.647621
1.696e-008,-104.1517,-75.760101
1.697e-008,-104.79884,-57.701828
1.698e-008,-105.50172,-39.434872
1.699e-008,-106.26967,-20.904922
1.7e-008,-107.11391,-2.0334506
1.701e-008,-108.04797,17.295624
1.702e-008,-109.08748,37.257256
1.703e-008,-110.24915,58.124527
1.704e-008,-111.54577,80.325508
1.705e-008,-112.97054,104.54553
1.706e-008,-114.45634,131.80417
1.707e-008,-115.78496,163.2498
1.708e-008,-116.51439,-161.08838
1.709e-008,-116.2367,-124.18892
1.71e-008,-115.08887,-90.280121
1.711e-008,-113.56079,-60.905918
1.712e-008,-112.00047,-35.294804
1.713e-008,-110.54582,-12.282913
1.714e-008,-109.23112,9.0010347
1.715e-008,-108.05195,29.118357
1.716e-008,-106.99369,48.423996
1.717e-008,-106.04054,67.143951
1.718e-008,-105.17854,85.428139
1.719e-008,-104.39555,103.37648
1.72e-008,-103.68192,121.06194
1.721e-008,-103.02939,138.53276
1.722e-008,-102.43163,155.82693
1.723e-008,-101.883,172.97221
1.724e-008,-101.37915,-170.00993
1.725e-008,-100.91617,-153.10393
1.726e-008,-100.491,-136.29639
1.727e-008,-100.10087,-119.57731
1.728e-008,-99.743576,-102.93797
1.729e-008,-99.417038,-86.372215
1.73e-008,-99.119652,-69.874863
1.731e-008,-98.849899,-53.440853
1.732e-008,-98.606422,-37.066734
1.733e-008,-98.388161,-20.749622
1.734e-008,-98.194069,-4.4867353
1.735e-008,-98.023224,11.723325
1.736e-008,-97.87484,27.883167
1.737e-008,-97.748154,43.992718
1.738e-008,-97.642494,60.054077
1.739e-008,-97.557198,76.066948
1.74e-008,-97.491882,92.03257
1.741e-008,-97.445831,107.95109
1.742e-008,-97.418602,123.82178
1.743e-008,-97.409706,139.64511
1.744e-008,-97.418762,155.4207
1.745e-008,-97.44516,171.14818
1.746e-008,-97.488663,-173.1734
1.747e-008,-97.548698,-157.54451
1.748e-008,-97.624878,-141.96565
1.749e-008,-97.716782,-126.43819
1.75e-008,-97.823875,-110.96291
1.751e-008,-97.94574,-95.540451
1.752e-008,-98.081902,-80.172005
1.753e-008,-98.23185,-64.858551
1.754e-008,-98.394997,-49.601387
1.755e-008,-98.570816,-34.399895
1.756e-008,-98.758766,-19.25643
1.757e-008,-98.958168,-4.1703954
1.758e-008,-99.168358,10.857718
1.759e-008,-99.38871,25.828436
1.76e-008,-99.618523,40.741028
1.761e-008,-99.857033,55.597347
1.762e-008,-100.10353,70.398506
1.763e-008,-100.35728,85.146347
1.764e-008,-100.61746,99.843117
1.765e-008,-100.8836,114.49162
1.766e-008,-101.1548,129.09584
1.767e-008,-101.43047,143.65994
1.768e-008,-101.71022,158.18849
1.769e-008,-101.99348,172.68695
1.77e-008,-102.2799,-172.83865
1.771e-008,-102.56925,-158.3817
1.772e-008,-102.86155,-143.93613
1.773e-008,-103.15685,-129.49481
1.774e-008,-103.45531,-115.05103
1.775e-008,-103.75751,-100.59769
1.776e-008,-104.0639,-86.12928
1.777e-008,-104.37542,-71.63913
1.778e-008,-104.6929,-57.122074
1.779e-008,-105.01762,-42.573704
1.78e-008,-105.35082,-27.989859
1.781e-008,-105.69411,-13.36842
1.782e-008,-106.0491,1.2922424
1.783e-008,-106.41758,15.992328
1.784e-008,-106.80165,30.730373
1.785e-008,-107.20376,45.504112
1.786e-008,-107.62608,60.308685
1.787e-008,-108.07151,75.137039
1.788e-008,-108.54314,89.981842
1.789e-008,-109.04432,104.82932
1.79e-008,-109.57901,119.66642
1.791e-008,-110.15163,134.47171
1.792e-008,-110.76738,149.22195
1.793e-008,-111.43247,163.88332
1.794e-008,-112.15373,178.41121
1.795e-008,-112.94012,-167.25337
1.796e-008,-113.80157,-153.19118
1.797e-008,-114.74995,-139.52205
1.798e-008,-115.79894,-126.41305
1.799e-008,-116.96207,-114.12032
1.8e-008,-118.24899,-103.03598
1.801e-008,-119.65151,-93.765472
1.802e-008,-121.11259,-87.174446
1.803e-008,-122.45371,-84.260742
1.804e-008,-123.31574,-85.232155
1.805e-008,-123.31277,-87.96701
1.806e-008,-122.45744,-88.744217
1.807e-008,-121.1413,-85.560921
1.808e-008,-119.71855,-78.695602
1.809e-008,-118.35873,-69.149986
1.81e-008,-117.11651,-57.781181
1.811e-008,-115.99875,-45.179699
1.812e-008,-114.99571,-31.73423
1.813e-008,-114.09402,-17.693571
1.814e-008,-113.28046,-3.223947
1.815e-008,-112.54346,11.556955
1.816e-008,-111.87332,26.568165
1.817e-008,-111.26212,41.751938
1.818e-008,-110.70286,57.061848
1.819e-008,-110.19024,72.466278
1.82e-008,-109.71938,87.938431
1.821e-008,-109.28648,103.45631
1.822e-008,-108.88826,119.00424
1.823e-008,-108.52178,134.56754
1.824e-008,-108.18461,150.13536
1.825e-008,-107.87459,165.69797
1.826e-008,-107.58988,-178.75334
1.827e-008,-107.32886,-163.2254
1.828e-008,-107.08988,-147.72386
1.829e-008,-106.87167,-132.25415
1.83e-008,-106.67288,-116.82036
1.831e-008,-106.49236,-101.42664
1.832e-008,-106.32899,-86.07618
1.833e-008,-106.18175,-70.771049
1.834e-008,-106.04951,-55.513496
1.835e-008,-105.93135,-40.304939
1.836e-008,-105.82636,-25.146057
1.837e-008,-105.73355,-10.037267
1.838e-008,-105.65193,5.0215993
1.839e-008,-105.58071,20.031971
1.84e-008,-105.51897,34.995213
1.841e-008,-105.46586,49.913208
1.842e-008,-105.42066,64.7892
1.843e-008,-105.38259,79.626343
1.844e-008,-105.35097,94.429108
1.845e-008,-105.32523,109.20197
1.846e-008,-105.30475,123.95081
1.847e-008,-105.28921,138.68082
1.848e-008,-105.27824,153.39841
1.849e-008,-105.2716,168.11028
1.85e-008,-105.26926,-177.1759
1.851e-008,-105.2712,-162.45445
1.852e-008,-105.27762,-147.71718
1.853e-008,-105.28874,-132.95663
1.854e-008,-105.30491,-118.16615
1.855e-008,-105.32665,-103.33932
1.856e-008,-105.35471,-88.468864
1.857e-008,-105.3896,-73.548424
1.858e-008,-105.4321,-58.572201
1.859e-008,-105.48317,-43.534618
1.86e-008,-105.54359,-28.429747
1.861e-008,-105.61437,-13.253735
1.862e-008,-105.6965,1.9991989
1.863e-008,-105.79095,17.332481
1.864e-008,-105.89877,32.750843
1.865e-008,-106.02101,48.257912
1.866e-008,-106.15876,63.857838
1.867e-008,-106.31294,79.554886
1.868e-008,-106.4849,95.351746
1.869e-008,-106.67542,111.2536
1.87e-008,-106.8858,127.26631
1.871e-008,-107.11695,143.39236
1.872e-008,-107.37022,159.63855
1.873e-008,-107.64647,176.01082
1.874e-008,-107.9472,-167.48291
1.875e-008,-108.27335,-150.83659
1.876e-008,-108.6263,-134.03957
1.877e-008,-109.00724,-117.08144
1.878e-008,-109.41756,-99.950432
1.879e-008,-109.85864,-82.631462
1.88e-008,-110.33211,-65.10862
1.881e-008,-110.83923,-47.360725
1.882e-008,-111.3819,-29.365248
1.883e-008,-111.96167,-11.091998
1.884e-008,-112.58024,7.491828
1.885e-008,-113.23923,26.430944
1.886e-008,-113.94051,45.775814
1.887e-008,-114.68454,65.594131
1.888e-008,-115.47186,85.967323
1.889e-008,-116.30088,107.00352
1.89e-008,-117.16724,128.83424
1.891e-008,-118.05914,151.6284
1.892e-008,-118.95612,175.58467
1.893e-008,-119.82022,-159.08569
1.894e-008,-120.5909,-132.22441
1.895e-008,-121.1809,-103.83287
1.896e-008,-121.49465,-74.226608
1.897e-008,-121.46188,-44.098927
1.898e-008,-121.08014,-14.31592
1.899e-008,-120.41071,14.405124
1.9e-008,-119.54794,41.712643
1.901e-008,-118.57721,67.570435
1.902e-008,-117.56013,92.130722
1.903e-008,-116.53481,115.5794
1.904e-008,-115.52278,138.10811
1.905e-008,-114.53507,159.87154
1.906e-008,-113.57743,-179.00351
1.907e-008,-112.65217,-158.41978
1.908e-008,-111.7597,-138.30058
1.909e-008,-110.89996,-118.58611
1.91e-008,-110.07242,-99.225258
1.911e-008,-109.27644,-80.179764
1.912e-008,-108.51115,-61.414467
1.913e-008,-107.77563,-42.902637
1.914e-008,-107.06924,-24.617762
1.915e-008,-106.3911,-6.54002
1.916e-008,-105.74048,11.350245
1.917e-008,-105.11648,29.068213
1.918e-008,-104.51841,46.630341
1.919e-008,-103.94553,64.048073
1.92e-008,-103.39703,81.33419
1.921e-008,-102.87226,98.498451
1.922e-008,-102.37047,115.55072
1.923e-008,-101.891,132.49898
1.924e-008,-101.43317,149.35144
1.925e-008,-100.99629,166.11458
1.926e-008,-100.57983,-177.20479
1.927e-008,-100.18316,-160.60179
1.928e-008,-99.805695,-144.07051
1.929e-008,-99.446854,-127.60665
1.93e-008,-99.106171,-111.20546
1.931e-008,-98.783066,-94.863647
1.932e-008,-98.477135,-78.576851
1.933e-008,-98.18779,-62.342213
1.934e-008,-97.914703,-46.156303
1.935e-008,-97.657402,-30.016472
1.936e-008,-97.415466,-13.919869
1.937e-008,-97.188515,2.1357775
1.938e-008,-96.976219,18.153168
1.939e-008,-96.778183,34.134167
1.94e-008,-96.594116,50.081272
1.941e-008,-96.42366,65.996193
1.942e-008,-96.266586,81.880959
1.943e-008,-96.122574,97.737198
1.944e-008,-95.991371,113.56688
1.945e-008,-95.872765,129.37175
1.946e-008,-95.76651,145.15327
1.947e-008,-95.672401,160.91319
1.948e-008,-95.590271,176.65289
1.949e-008,-95.519951,-167.62579
1.95e-008,-95.461273,-151.92142
1.951e-008,-95.414139,-136.23282
1.952e-008,-95.378403,-120.55817
1.953e-008,-95.353996,-104.89606
1.954e-008,-95.340851,-89.245216
1.955e-008,-95.33889,-73.603905
1.956e-008,-95.348076,-57.97076
1.957e-008,-95.368462,-42.344418
1.958e-008,-95.400009,-26.72327
1.959e-008,-95.442734,-11.106179
1.96e-008,-95.496742,4.5087671
1.961e-008,-95.562103,20.122972
1.962e-008,-95.638893,35.737747
1.963e-008,-95.727264,51.354679
1.964e-008,-95.827377,66.975601
1.965e-008,-95.93943,82.601875
1.966e-008,-96.063606,98.235382
1.967e-008,-96.200157,113.87782
1.968e-008,-96.349388,129.53117
1.969e-008,-96.51162,145.19717
1.97e-008,-96.687172,160.87787
1.971e-008,-96.87645,176.57556
1.972e-008,-97.07991,-167.70703
1.973e-008,-97.297981,-151.96788
1.974e-008,-97.531273,-136.20392
1.975e-008,-97.780251,-120.41157
1.976e-008,-98.0457,-104.58762
1.977e-008,-98.3283,-88.727554
1.978e-008,-98.628761,-72.827263
1.979e-008,-98.948013,-56.881172
1.98e-008,-99.287003,-40.882885
1.981e-008,-99.646675,-24.82534
1.982e-008,-100.02825,-8.6996546
1.983e-008,-100.433,7.5046134
1.984e-008,-100.8622,23.799032
1.985e-008,-101.31735,40.198368
1.986e-008,-101.80003,56.722069
1.987e-008,-102.31182,73.390549
1.988e-008,-102.8544,90.232132
1.989e-008,-103.42925,107.27941
1.99e-008,-104.03769,124.57516
1.991e-008,-104.68073,142.17146
1.992e-008,-105.35794,160.13258
1.993e-008,-106.06763,178.5392
1.994e-008,-106.80499,-162.51048
1.995e-008,-107.56071,-142.90106
1.996e-008,-108.31792,-122.50668
1.997e-008,-109.04985,-101.2033
1.998e-008,-109.71716,-78.908684
1.999e-008,-110.26799,-55.638927
2e-008,-110.646,-31.567863
END

