!CSV A.01.01
!Keysight Technologies,N5227B,US58420762,A.13.80.08
!Date: Monday, November 20, 2023 15:22:51
!Source: Standard

BEGIN CH1_DATA
Time(s),S21(DB),S21(DEG)
1e-008,-121.44929,75.051941
1.001e-008,-121.00725,91.620438
1.002e-008,-120.62953,107.84653
1.003e-008,-120.30959,123.78221
1.004e-008,-120.04223,139.47334
1.005e-008,-119.82232,154.94965
1.006e-008,-119.64577,170.24329
1.007e-008,-119.50824,-174.62901
1.008e-008,-119.40633,-159.64758
1.009e-008,-119.33743,-144.79185
1.01e-008,-119.29832,-130.04855
1.011e-008,-119.28718,-115.39958
1.012e-008,-119.30183,-100.8322
1.013e-008,-119.34064,-86.327324
1.014e-008,-119.40276,-71.865196
1.015e-008,-119.48748,-57.432003
1.016e-008,-119.59451,-43.007561
1.017e-008,-119.72424,-28.570148
1.018e-008,-119.87759,-14.095733
1.019e-008,-120.05605,0.43427345
1.02e-008,-120.2612,15.045121
1.021e-008,-120.4966,29.765108
1.022e-008,-120.76467,44.624294
1.023e-008,-121.07026,59.654728
1.024e-008,-121.41808,74.893074
1.025e-008,-121.81374,90.389458
1.026e-008,-122.26316,106.19965
1.027e-008,-122.77406,122.40132
1.028e-008,-123.35456,139.0864
1.029e-008,-124.01178,156.39059
1.03e-008,-124.75137,174.50787
1.031e-008,-125.57433,-166.30978
1.032e-008,-126.46932,-145.69241
1.033e-008,-127.39492,-123.17524
1.034e-008,-128.25832,-98.273232
1.035e-008,-128.89235,-70.759789
1.036e-008,-129.07942,-41.251492
1.037e-008,-128.69443,-11.41263
1.038e-008,-127.81615,16.928932
1.039e-008,-126.65262,42.861973
1.04e-008,-125.3934,66.436691
1.041e-008,-124.15119,88.108589
1.042e-008,-122.98016,108.37411
1.043e-008,-121.89756,127.61201
1.044e-008,-120.90775,146.11366
1.045e-008,-120.00624,164.07637
1.046e-008,-119.18784,-178.35381
1.047e-008,-118.44528,-161.07887
1.048e-008,-117.77287,-144.02214
1.049e-008,-117.16546,-127.13039
1.05e-008,-116.61829,-110.36062
1.051e-008,-116.12722,-93.682144
1.052e-008,-115.68877,-77.068306
1.053e-008,-115.30022,-60.502342
1.054e-008,-114.95933,-43.966301
1.055e-008,-114.66393,-27.446331
1.056e-008,-114.41248,-10.931572
1.057e-008,-114.20375,5.5889158
1.058e-008,-114.03664,22.12575
1.059e-008,-113.91027,38.686668
1.06e-008,-113.82413,55.282181
1.061e-008,-113.77805,71.919395
1.062e-008,-113.77161,88.611519
1.063e-008,-113.80496,105.36765
1.064e-008,-113.87801,122.19942
1.065e-008,-113.99132,139.11952
1.066e-008,-114.14514,156.14594
1.067e-008,-114.33984,173.29401
1.068e-008,-114.57571,-169.41373
1.069e-008,-114.8535,-151.95264
1.07e-008,-115.17319,-134.29347
1.071e-008,-115.53455,-116.40005
1.072e-008,-115.9369,-98.231094
1.073e-008,-116.37866,-79.734192
1.074e-008,-116.85619,-60.854061
1.075e-008,-117.36423,-41.523258
1.076e-008,-117.89352,-21.66976
1.077e-008,-118.43134,-1.220493
1.078e-008,-118.95786,19.883919
1.079e-008,-119.4486,41.675087
1.08e-008,-119.87281,64.129425
1.081e-008,-120.19811,87.143715
1.082e-008,-120.39743,110.52026
1.083e-008,-120.45592,133.99371
1.084e-008,-120.37571,157.26709
1.085e-008,-120.1753,-179.91069
1.086e-008,-119.88457,-157.71822
1.087e-008,-119.53591,-136.24472
1.088e-008,-119.15935,-115.49739
1.089e-008,-118.7793,-95.440231
1.09e-008,-118.41412,-76.010666
1.091e-008,-118.07638,-57.14101
1.092e-008,-117.77506,-38.761272
1.093e-008,-117.51502,-20.814285
1.094e-008,-117.3007,-3.2484212
1.095e-008,-117.1339,13.977776
1.096e-008,-117.01575,30.897341
1.097e-008,-116.94711,47.534637
1.098e-008,-116.9287,63.904945
1.099e-008,-116.96053,80.020035
1.1e-008,-117.04322,95.886383
1.101e-008,-117.17668,111.4965
1.102e-008,-117.3613,126.84604
1.103e-008,-117.59734,141.91962
1.104e-008,-117.88475,156.69269
1.105e-008,-118.2232,171.13579
1.106e-008,-118.61132,-174.78862
1.107e-008,-119.04723,-161.13333
1.108e-008,-119.52703,-147.95609
1.109e-008,-120.04441,-135.32704
1.11e-008,-120.58872,-123.32504
1.111e-008,-121.14538,-112.02276
1.112e-008,-121.69157,-101.48668
1.113e-008,-122.19865,-91.735634
1.114e-008,-122.63248,-82.731277
1.115e-008,-122.95937,-74.331711
1.116e-008,-123.15163,-66.294617
1.117e-008,-123.2001,-58.318096
1.118e-008,-123.11298,-50.089893
1.119e-008,-122.91781,-41.363289
1.12e-008,-122.64962,-31.988518
1.121e-008,-122.34428,-21.916254
1.122e-008,-122.03271,-11.170833
1.123e-008,-121.73953,0.17807744
1.124e-008,-121.48233,12.052285
1.125e-008,-121.27416,24.356348
1.126e-008,-121.1244,37.013832
1.127e-008,-121.04017,49.937199
1.128e-008,-121.02625,63.062481
1.129e-008,-121.08838,76.317574
1.13e-008,-121.23157,89.633507
1.131e-008,-121.4613,102.94181
1.132e-008,-121.78407,116.1683
1.133e-008,-122.2091,129.21774
1.134e-008,-122.74435,141.97487
1.135e-008,-123.40185,154.28181
1.136e-008,-124.19236,165.91301
1.137e-008,-125.12685,176.53986
1.138e-008,-126.20171,-174.34132
1.139e-008,-127.38284,-167.45219
1.14e-008,-128.55341,-163.72493
1.141e-008,-129.44028,-163.77251
1.142e-008,-129.65427,-166.58105
1.143e-008,-129.02153,-169.00583
1.144e-008,-127.79293,-168.20921
1.145e-008,-126.34856,-163.63152
1.146e-008,-124.92458,-156.0321
1.147e-008,-123.61613,-146.30579
1.148e-008,-122.44841,-135.12505
1.149e-008,-121.4186,-122.94817
1.15e-008,-120.51641,-110.06911
1.151e-008,-119.72878,-96.68782
1.152e-008,-119.04556,-82.937187
1.153e-008,-118.45642,-68.915695
1.154e-008,-117.95348,-54.689301
1.155e-008,-117.53054,-40.316162
1.156e-008,-117.18296,-25.834534
1.157e-008,-116.90652,-11.272867
1.158e-008,-116.69827,3.3351433
1.159e-008,-116.55635,17.965689
1.16e-008,-116.47955,32.598019
1.161e-008,-116.4673,47.205086
1.162e-008,-116.51978,61.767559
1.163e-008,-116.63783,76.258553
1.164e-008,-116.82252,90.642792
1.165e-008,-117.07645,104.89124
1.166e-008,-117.40224,118.95884
1.167e-008,-117.80321,132.7896
1.168e-008,-118.28301,146.31618
1.169e-008,-118.84555,159.4406
1.17e-008,-119.49329,172.04279
1.171e-008,-120.22747,-176.04033
1.172e-008,-121.04322,-165.04195
1.173e-008,-121.92208,-155.2437
1.174e-008,-122.82394,-146.99748
1.175e-008,-123.67194,-140.61421
1.176e-008,-124.33752,-136.19833
1.177e-008,-124.67281,-133.28018
1.178e-008,-124.58052,-130.75005
1.179e-008,-124.09071,-127.27917
1.18e-008,-123.33274,-122.02182
1.181e-008,-122.45467,-114.78614
1.182e-008,-121.56293,-105.79276
1.183e-008,-120.71751,-95.401184
1.184e-008,-119.9485,-83.928757
1.185e-008,-119.2665,-71.636765
1.186e-008,-118.67603,-58.723244
1.187e-008,-118.17438,-45.336834
1.188e-008,-117.75991,-31.585934
1.189e-008,-117.42937,-17.552584
1.19e-008,-117.18069,-3.3000515
1.191e-008,-117.01245,11.121502
1.192e-008,-116.92337,25.674212
1.193e-008,-116.91425,40.323029
1.194e-008,-116.98639,55.037994
1.195e-008,-117.1427,69.790855
1.196e-008,-117.38728,84.553833
1.197e-008,-117.72672,99.299736
1.198e-008,-118.16939,113.98958
1.199e-008,-118.72797,128.58286
1.2e-008,-119.41825,143.01575
1.201e-008,-120.26385,157.2023
1.202e-008,-121.29668,171.00546
1.203e-008,-122.5649,-175.81244
1.204e-008,-124.13795,-163.68073
1.205e-008,-126.11978,-153.48911
1.206e-008,-128.64073,-147.26817
1.207e-008,-131.65933,-150.11453
1.208e-008,-133.67198,-169.61858
1.209e-008,-131.99361,168.81633
1.21e-008,-128.87257,164.0278
1.211e-008,-126.17718,169.43332
1.212e-008,-124.03886,179.3143
1.213e-008,-122.32686,-168.65947
1.214e-008,-120.9337,-155.46637
1.215e-008,-119.78399,-141.58585
1.216e-008,-118.8292,-127.26214
1.217e-008,-118.03507,-112.64571
1.218e-008,-117.37727,-97.826744
1.219e-008,-116.83933,-82.863686
1.22e-008,-116.40905,-67.799507
1.221e-008,-116.07784,-52.663994
1.222e-008,-115.83996,-37.482395
1.223e-008,-115.69148,-22.27523
1.224e-008,-115.63088,-7.0547266
1.225e-008,-115.65804,8.154995
1.226e-008,-115.77479,23.340034
1.227e-008,-115.98441,38.478058
1.228e-008,-116.29321,53.549061
1.229e-008,-116.70931,68.517181
1.23e-008,-117.24487,83.344452
1.231e-008,-117.91637,97.965202
1.232e-008,-118.74744,112.29442
1.233e-008,-119.77139,126.18074
1.234e-008,-121.03614,139.37375
1.235e-008,-122.61338,151.40208
1.236e-008,-124.60761,161.2948
1.237e-008,-127.13486,166.79877
1.238e-008,-130.06201,162.47874
1.239e-008,-131.64183,142.12816
1.24e-008,-129.68288,122.93067
1.241e-008,-126.62519,119.7497
1.242e-008,-124.01092,125.72959
1.243e-008,-121.92319,135.81512
1.244e-008,-120.24185,147.903
1.245e-008,-118.86585,161.08479
1.246e-008,-117.72646,174.91245
1.247e-008,-116.77661,-170.85211
1.248e-008,-115.98396,-156.35703
1.249e-008,-115.32596,-141.69029
1.25e-008,-114.78613,-126.91541
1.251e-008,-114.35288,-112.07738
1.252e-008,-114.01756,-97.213554
1.253e-008,-113.77467,-82.353622
1.254e-008,-113.61999,-67.527954
1.255e-008,-113.55139,-52.764217
1.256e-008,-113.56835,-38.097111
1.257e-008,-113.67107,-23.560266
1.258e-008,-113.86163,-9.2018661
1.259e-008,-114.14292,4.9245253
1.26e-008,-114.51863,18.741203
1.261e-008,-114.99342,32.149395
1.262e-008,-115.57178,45.012543
1.263e-008,-116.25578,57.1404
1.264e-008,-117.04219,68.269051
1.265e-008,-117.91349,78.040276
1.266e-008,-118.82348,86.005951
1.267e-008,-119.67275,91.733955
1.268e-008,-120.29327,95.106812
1.269e-008,-120.48939,96.833
1.27e-008,-120.16109,98.512054
1.271e-008,-119.39565,101.79045
1.272e-008,-118.38832,107.44707
1.273e-008,-117.31119,115.41423
1.274e-008,-116.2682,125.2661
1.275e-008,-115.3101,136.55669
1.276e-008,-114.45535,148.92368
1.277e-008,-113.70881,162.10208
1.278e-008,-113.0687,175.90509
1.279e-008,-112.53127,-169.80075
1.28e-008,-112.09241,-155.1058
1.281e-008,-111.74874,-140.07254
1.282e-008,-111.49805,-124.7431
1.283e-008,-111.33902,-109.14211
1.284e-008,-111.27191,-93.27787
1.285e-008,-111.29816,-77.148315
1.286e-008,-111.42068,-60.734623
1.287e-008,-111.64401,-44.000061
1.288e-008,-111.97446,-26.887838
1.289e-008,-112.41965,-9.3092575
1.29e-008,-112.98852,8.8711739
1.291e-008,-113.69043,27.85354
1.292e-008,-114.53088,47.946178
1.293e-008,-115.50382,69.608536
1.294e-008,-116.56757,93.497993
1.295e-008,-117.60336,120.39622
1.296e-008,-118.36201,150.72543
1.297e-008,-118.51144,-176.51727
1.298e-008,-117.90702,-144.08331
1.299e-008,-116.75965,-114.45251
1.3e-008,-115.39966,-88.249039
1.301e-008,-114.04817,-64.898415
1.302e-008,-112.80373,-43.626205
1.303e-008,-111.69839,-23.818457
1.304e-008,-110.73608,-5.0523014
1.305e-008,-109.9113,12.950215
1.306e-008,-109.21581,30.374128
1.307e-008,-108.64259,47.338963
1.308e-008,-108.1861,63.920265
1.309e-008,-107.84321,80.165527
1.31e-008,-107.61299,96.095589
1.311e-008,-107.49668,111.71176
1.312e-008,-107.49844,126.99396
1.313e-008,-107.62494,141.89615
1.314e-008,-107.88628,156.33908
1.315e-008,-108.2962,170.19481
1.316e-008,-108.87203,-176.74568
1.317e-008,-109.63346,-164.82039
1.318e-008,-110.59504,-154.59462
1.319e-008,-111.74187,-147.0015
1.32e-008,-112.95729,-143.45593
1.321e-008,-113.87255,-145.28365
1.322e-008,-113.85539,-151.21878
1.323e-008,-112.65518,-155.99525
1.324e-008,-110.7879,-155.71019
1.325e-008,-108.81123,-150.58017
1.326e-008,-106.96879,-142.1416
1.327e-008,-105.32093,-131.62267
1.328e-008,-103.86439,-119.79656
1.329e-008,-102.57995,-107.13224
1.33e-008,-101.44742,-93.923141
1.331e-008,-100.44946,-80.360352
1.332e-008,-99.572296,-66.576035
1.333e-008,-98.805336,-52.66819
1.334e-008,-98.140701,-38.714272
1.335e-008,-97.572693,-24.782129
1.336e-008,-97.097359,-10.935549
1.337e-008,-96.712151,2.7590353
1.338e-008,-96.415459,16.227137
1.339e-008,-96.206245,29.38134
1.34e-008,-96.083038,42.113152
1.341e-008,-96.042786,54.285656
1.342e-008,-96.07827,65.724899
1.343e-008,-96.17421,76.214684
1.344e-008,-96.300568,85.503708
1.345e-008,-96.403625,93.347473
1.346e-008,-96.398865,99.615959
1.347e-008,-96.177666,104.4734
1.348e-008,-95.642349,108.52804
1.349e-008,-94.759239,112.72526
1.35e-008,-93.580627,117.95374
1.351e-008,-92.209778,124.70399
1.352e-008,-90.748863,133.0472
1.353e-008,-89.271797,142.81071
1.354e-008,-87.822708,153.74425
1.355e-008,-86.424316,165.60724
1.356e-008,-85.086311,178.19939
1.357e-008,-83.811195,-168.6367
1.358e-008,-82.597755,-155.02161
1.359e-008,-81.443069,-141.04732
1.36e-008,-80.343506,-126.78398
1.361e-008,-79.295296,-112.28561
1.362e-008,-78.294777,-97.594093
1.363e-008,-77.33857,-82.74231
1.364e-008,-76.423561,-67.756294
1.365e-008,-75.546921,-52.656891
1.366e-008,-74.706139,-37.460926
1.367e-008,-73.898933,-22.182148
1.368e-008,-73.123268,-6.8318553
1.369e-008,-72.377304,8.5805731
1.37e-008,-71.659393,24.047291
1.371e-008,-70.968048,39.561691
1.372e-008,-70.301926,55.118198
1.373e-008,-69.659805,70.71199
1.374e-008,-69.040588,86.339012
1.375e-008,-68.443268,101.9957
1.376e-008,-67.866928,117.67897
1.377e-008,-67.310715,133.38617
1.378e-008,-66.773872,149.11494
1.379e-008,-66.255684,164.86322
1.38e-008,-65.755508,-179.37083
1.381e-008,-65.272736,-163.58884
1.382e-008,-64.806816,-147.79224
1.383e-008,-64.357231,-131.9823
1.384e-008,-63.923508,-116.16022
1.385e-008,-63.505203,-100.32702
1.386e-008,-63.101902,-84.483635
1.387e-008,-62.713226,-68.630951
1.388e-008,-62.338814,-52.769718
1.389e-008,-61.978336,-36.900658
1.39e-008,-61.631477,-21.024416
1.391e-008,-61.297943,-5.1415887
1.392e-008,-60.97747,10.747277
1.393e-008,-60.669792,26.64167
1.394e-008,-60.37468,42.541134
1.395e-008,-60.0919,58.445225
1.396e-008,-59.821247,74.353546
1.397e-008,-59.562523,90.265701
1.398e-008,-59.31554,106.18137
1.399e-008,-59.080124,122.10019
1.4e-008,-58.85611,138.02187
1.401e-008,-58.643349,153.94611
1.402e-008,-58.441696,169.87262
1.403e-008,-58.251015,-174.19885
1.404e-008,-58.071178,-158.26855
1.405e-008,-57.902073,-142.33675
1.406e-008,-57.74358,-126.40363
1.407e-008,-57.5956,-110.46945
1.408e-008,-57.458035,-94.534424
1.409e-008,-57.330799,-78.598747
1.41e-008,-57.213802,-62.662609
1.411e-008,-57.106976,-46.726231
1.412e-008,-57.010235,-30.789783
1.413e-008,-56.923527,-14.853466
1.414e-008,-56.846783,1.0825506
1.415e-008,-56.779949,17.01808
1.416e-008,-56.722973,32.95293
1.417e-008,-56.675816,48.886948
1.418e-008,-56.638428,64.819939
1.419e-008,-56.610779,80.751732
1.42e-008,-56.592834,96.682152
1.421e-008,-56.584564,112.61102
1.422e-008,-56.585949,128.53815
1.423e-008,-56.596966,144.46338
1.424e-008,-56.617607,160.38652
1.425e-008,-56.647854,176.30737
1.426e-008,-56.687702,-167.77423
1.427e-008,-56.737148,-151.85849
1.428e-008,-56.796192,-135.9456
1.429e-008,-56.864838,-120.03577
1.43e-008,-56.943096,-104.1292
1.431e-008,-57.030975,-88.226097
1.432e-008,-57.128494,-72.326691
1.433e-008,-57.235672,-56.431206
1.434e-008,-57.352524,-40.539875
1.435e-008,-57.479084,-24.652946
1.436e-008,-57.615379,-8.7706642
1.437e-008,-57.76144,7.106699
1.438e-008,-57.917309,22.97887
1.439e-008,-58.083019,38.84557
1.44e-008,-58.258621,54.706486
1.441e-008,-58.444153,70.56131
1.442e-008,-58.639671,86.409721
1.443e-008,-58.845226,102.25137
1.444e-008,-59.060879,118.08588
1.445e-008,-59.286682,133.91289
1.446e-008,-59.522705,149.73198
1.447e-008,-59.769009,165.54272
1.448e-008,-60.025661,-178.6553
1.449e-008,-60.292736,-162.86261
1.45e-008,-60.570305,-147.07965
1.451e-008,-60.858448,-131.30699
1.452e-008,-61.157238,-115.54518
1.453e-008,-61.466759,-99.794807
1.454e-008,-61.78709,-84.056519
1.455e-008,-62.118317,-68.330956
1.456e-008,-62.460522,-52.618851
1.457e-008,-62.813786,-36.920956
1.458e-008,-63.178192,-21.23806
1.459e-008,-63.553825,-5.5710258
1.46e-008,-63.940765,10.079251
1.461e-008,-64.339088,25.711803
1.462e-008,-64.748871,41.325611
1.463e-008,-65.170174,56.919598
1.464e-008,-65.603065,72.492599
1.465e-008,-66.047592,88.043427
1.466e-008,-66.503799,103.57075
1.467e-008,-66.971718,119.07323
1.468e-008,-67.451355,134.54941
1.469e-008,-67.942719,149.99779
1.47e-008,-68.44577,165.41675
1.471e-008,-68.960457,-179.19536
1.472e-008,-69.48671,-163.84026
1.473e-008,-70.024399,-148.51976
1.474e-008,-70.573372,-133.23572
1.475e-008,-71.133415,-117.99001
1.476e-008,-71.704285,-102.78452
1.477e-008,-72.28566,-87.62114
1.478e-008,-72.877136,-72.501717
1.479e-008,-73.478264,-57.428005
1.48e-008,-74.088486,-42.401604
1.481e-008,-74.707161,-27.423903
1.482e-008,-75.333534,-12.496041
1.483e-008,-75.966751,2.381263
1.484e-008,-76.605827,17.207817
1.485e-008,-77.249664,31.98395
1.486e-008,-77.897026,46.710785
1.487e-008,-78.546577,61.39035
1.488e-008,-79.196831,76.025688
1.489e-008,-79.846207,90.621056
1.49e-008,-80.493027,105.18198
1.491e-008,-81.135544,119.7154
1.492e-008,-81.77195,134.22978
1.493e-008,-82.400421,148.735
1.494e-008,-83.019165,163.24239
1.495e-008,-83.626419,177.76453
1.496e-008,-84.22052,-167.68489
1.497e-008,-84.799896,-153.09157
1.498e-008,-85.363136,-138.44095
1.499e-008,-85.908951,-123.71841
1.5e-008,-86.436234,-108.91023
1.501e-008,-86.944016,-94.003777
1.502e-008,-87.43145,-78.988327
1.503e-008,-87.897842,-63.855152
1.504e-008,-88.342606,-48.598335
1.505e-008,-88.765251,-33.215004
1.506e-008,-89.165382,-17.705303
1.507e-008,-89.542709,-2.0727587
1.508e-008,-89.897087,13.675809
1.509e-008,-90.228455,29.530535
1.51e-008,-90.536987,45.478752
1.511e-008,-90.822975,61.505566
1.512e-008,-91.08699,77.594185
1.513e-008,-91.329765,93.726494
1.514e-008,-91.552322,109.88403
1.515e-008,-91.755844,126.04834
1.516e-008,-91.941734,142.20134
1.517e-008,-92.111481,158.32632
1.518e-008,-92.266731,174.40791
1.519e-008,-92.409126,-169.5674
1.52e-008,-92.540321,-153.61105
1.521e-008,-92.661896,-137.73294
1.522e-008,-92.77533,-121.94023
1.523e-008,-92.88195,-106.23851
1.524e-008,-92.982971,-90.631348
1.525e-008,-93.079369,-75.120728
1.526e-008,-93.171997,-59.706898
1.527e-008,-93.261482,-44.388298
1.528e-008,-93.348358,-29.162483
1.529e-008,-93.432922,-14.025534
1.53e-008,-93.515411,1.0277553
1.531e-008,-93.595932,16.003277
1.532e-008,-93.67453,30.908321
1.533e-008,-93.75119,45.750576
1.534e-008,-93.825882,60.538631
1.535e-008,-93.898575,75.281738
1.536e-008,-93.969292,89.989494
1.537e-008,-94.038048,104.67171
1.538e-008,-94.104965,119.33849
1.539e-008,-94.170219,134.00006
1.54e-008,-94.234039,148.66615
1.541e-008,-94.296753,163.34666
1.542e-008,-94.358765,178.0507
1.543e-008,-94.420494,-167.21288
1.544e-008,-94.482491,-152.43591
1.545e-008,-94.545227,-137.61101
1.546e-008,-94.609283,-122.73135
1.547e-008,-94.675194,-107.79079
1.548e-008,-94.743515,-92.784058
1.549e-008,-94.814728,-77.706573
1.55e-008,-94.889297,-62.554642
1.551e-008,-94.967606,-47.324863
1.552e-008,-95.050064,-32.014786
1.553e-008,-95.136803,-16.622656
1.554e-008,-95.228119,-1.1471704
1.555e-008,-95.324043,14.412388
1.556e-008,-95.424591,30.056429
1.557e-008,-95.529655,45.784279
1.558e-008,-95.639069,61.59483
1.559e-008,-95.752556,77.487061
1.56e-008,-95.869781,93.458443
1.561e-008,-95.990273,109.50659
1.562e-008,-96.113617,125.62814
1.563e-008,-96.239212,141.81909
1.564e-008,-96.366524,158.0748
1.565e-008,-96.494904,174.39047
1.566e-008,-96.623772,-169.24028
1.567e-008,-96.752525,-152.82396
1.568e-008,-96.8806,-136.36765
1.569e-008,-97.007408,-119.8792
1.57e-008,-97.132553,-103.36686
1.571e-008,-97.255608,-86.839569
1.572e-008,-97.376282,-70.306313
1.573e-008,-97.49437,-53.776459
1.574e-008,-97.609787,-37.259548
1.575e-008,-97.722527,-20.764782
1.576e-008,-97.832741,-4.3016672
1.577e-008,-97.940582,12.12109
1.578e-008,-98.046494,28.494684
1.579e-008,-98.150742,44.81081
1.58e-008,-98.253853,61.062527
1.581e-008,-98.356293,77.242401
1.582e-008,-98.458611,93.344154
1.583e-008,-98.561371,109.36222
1.584e-008,-98.665146,125.2912
1.585e-008,-98.770409,141.12695
1.586e-008,-98.877754,156.86523
1.587e-008,-98.98761,172.50267
1.588e-008,-99.10041,-171.96339
1.589e-008,-99.216469,-156.53592
1.59e-008,-99.336128,-141.21695
1.591e-008,-99.459579,-126.00836
1.592e-008,-99.58699,-110.91229
1.593e-008,-99.718361,-95.929657
1.594e-008,-99.853699,-81.06208
1.595e-008,-99.99279,-66.31102
1.596e-008,-100.13546,-51.677269
1.597e-008,-100.2813,-37.161758
1.598e-008,-100.42988,-22.765455
1.599e-008,-100.58054,-8.4889364
1.6e-008,-100.73263,5.6674747
1.601e-008,-100.88524,19.703962
1.602e-008,-101.03743,33.620464
1.603e-008,-101.18803,47.418232
1.604e-008,-101.33584,61.099033
1.605e-008,-101.47939,74.665787
1.606e-008,-101.61729,88.121681
1.607e-008,-101.74792,101.47221
1.608e-008,-101.86963,114.72341
1.609e-008,-101.98075,127.88406
1.61e-008,-102.07971,140.96347
1.611e-008,-102.1649,153.97375
1.612e-008,-102.23499,166.92818
1.613e-008,-102.28879,179.84222
1.614e-008,-102.32533,-167.26813
1.615e-008,-102.34402,-154.38477
1.616e-008,-102.34458,-141.49028
1.617e-008,-102.32715,-128.5659
1.618e-008,-102.29214,-115.59416
1.619e-008,-102.2404,-102.55771
1.62e-008,-102.17297,-89.441658
1.621e-008,-102.09126,-76.230988
1.622e-008,-101.99683,-62.91441
1.623e-008,-101.89132,-49.48135
1.624e-008,-101.77647,-35.924412
1.625e-008,-101.6541,-22.23699
1.626e-008,-101.5259,-8.4153147
1.627e-008,-101.39352,5.5437078
1.628e-008,-101.25845,19.640354
1.629e-008,-101.12218,33.874443
1.63e-008,-100.98588,48.244354
1.631e-008,-100.85078,62.748306
1.632e-008,-100.71778,77.382729
1.633e-008,-100.58772,92.144257
1.634e-008,-100.46131,107.02832
1.635e-008,-100.33913,122.03092
1.636e-008,-100.22163,137.14714
1.637e-008,-100.10919,152.37151
1.638e-008,-100.002,167.69917
1.639e-008,-99.900375,-176.87532
1.64e-008,-99.804283,-161.35745
1.641e-008,-99.713936,-145.75301
1.642e-008,-99.629242,-130.06755
1.643e-008,-99.550262,-114.30693
1.644e-008,-99.476944,-98.477257
1.645e-008,-99.409225,-82.584373
1.646e-008,-99.347046,-66.634804
1.647e-008,-99.290421,-50.634563
1.648e-008,-99.239281,-34.589855
1.649e-008,-99.193581,-18.50675
1.65e-008,-99.153343,-2.392195
1.651e-008,-99.118622,13.747739
1.652e-008,-99.089447,29.906782
1.653e-008,-99.065948,46.078388
1.654e-008,-99.048195,62.255905
1.655e-008,-99.036423,78.433197
1.656e-008,-99.030739,94.604607
1.657e-008,-99.031441,110.76333
1.658e-008,-99.038681,126.90353
1.659e-008,-99.052887,143.01949
1.66e-008,-99.074188,159.10507
1.661e-008,-99.102982,175.15469
1.662e-008,-99.139542,-168.8372
1.663e-008,-99.184227,-152.87636
1.664e-008,-99.237328,-136.96803
1.665e-008,-99.299126,-121.11774
1.666e-008,-99.36985,-105.33072
1.667e-008,-99.449875,-89.612114
1.668e-008,-99.539375,-73.967613
1.669e-008,-99.638412,-58.402679
1.67e-008,-99.747215,-42.922337
1.671e-008,-99.865883,-27.531981
1.672e-008,-99.99427,-12.237612
1.673e-008,-100.1324,2.9559262
1.674e-008,-100.27988,18.04216
1.675e-008,-100.43664,33.016193
1.676e-008,-100.60206,47.872066
1.677e-008,-100.77557,62.60434
1.678e-008,-100.9565,77.208
1.679e-008,-101.14395,91.677444
1.68e-008,-101.33677,106.00905
1.681e-008,-101.53376,120.19836
1.682e-008,-101.73346,134.24329
1.683e-008,-101.9343,148.14098
1.684e-008,-102.13454,161.89209
1.685e-008,-102.33228,175.49844
1.686e-008,-102.52562,-171.0369
1.687e-008,-102.71249,-157.70869
1.688e-008,-102.89114,-144.50739
1.689e-008,-103.05964,-131.42294
1.69e-008,-103.21657,-118.4426
1.691e-008,-103.36065,-105.55131
1.692e-008,-103.49103,-92.733398
1.693e-008,-103.60738,-79.971001
1.694e-008,-103.70961,-67.24646
1.695e-008,-103.7985,-54.543564
1.696e-008,-103.87487,-41.84568
1.697e-008,-103.94013,-29.139412
1.698e-008,-103.99599,-16.412247
1.699e-008,-104.04443,-3.6563535
1.7e-008,-104.08755,9.1354389
1.701e-008,-104.12741,21.96549
1.702e-008,-104.16615,34.83519
1.703e-008,-104.20565,47.741108
1.704e-008,-104.24783,60.680679
1.705e-008,-104.29424,73.646149
1.706e-008,-104.34628,86.629402
1.707e-008,-104.40495,99.620712
1.708e-008,-104.47102,112.60961
1.709e-008,-104.54499,125.58338
1.71e-008,-104.62684,138.53041
1.711e-008,-104.71636,151.43709
1.712e-008,-104.81288,164.29121
1.713e-008,-104.91529,177.07977
1.714e-008,-105.02217,-170.20924
1.715e-008,-105.13162,-157.58508
1.716e-008,-105.24133,-145.05804
1.717e-008,-105.34846,-132.63358
1.718e-008,-105.45016,-120.3149
1.719e-008,-105.54295,-108.10013
1.72e-008,-105.62361,-95.985847
1.721e-008,-105.68859,-83.959839
1.722e-008,-105.73473,-72.007935
1.723e-008,-105.75932,-60.108971
1.724e-008,-105.76014,-48.239246
1.725e-008,-105.73591,-36.37077
1.726e-008,-105.68627,-24.474047
1.727e-008,-105.61158,-12.520168
1.728e-008,-105.51336,-0.48185006
1.729e-008,-105.39377,11.666157
1.73e-008,-105.25576,23.943886
1.731e-008,-105.1025,36.367218
1.732e-008,-104.93746,48.946766
1.733e-008,-104.76421,61.688782
1.734e-008,-104.58619,74.594727
1.735e-008,-104.4066,87.66288
1.736e-008,-104.22829,100.88791
1.737e-008,-104.05399,114.26304
1.738e-008,-103.88583,127.77863
1.739e-008,-103.72578,141.4243
1.74e-008,-103.5755,155.18938
1.741e-008,-103.43616,169.06242
1.742e-008,-103.30903,-176.96901
1.743e-008,-103.19477,-162.91678
1.744e-008,-103.09406,-148.79243
1.745e-008,-103.00733,-134.60773
1.746e-008,-102.93492,-120.37457
1.747e-008,-102.87689,-106.10445
1.748e-008,-102.83325,-91.808342
1.749e-008,-102.80392,-77.497963
1.75e-008,-102.7886,-63.184414
1.751e-008,-102.78698,-48.878685
1.752e-008,-102.79845,-34.591778
1.753e-008,-102.82243,-20.334604
1.754e-008,-102.85818,-6.1182981
1.755e-008,-102.90464,8.0464382
1.756e-008,-102.96078,22.148867
1.757e-008,-103.02525,36.179226
1.758e-008,-103.09648,50.127075
1.759e-008,-103.17272,63.984005
1.76e-008,-103.25195,77.741806
1.761e-008,-103.33202,91.394035
1.762e-008,-103.41032,104.93546
1.763e-008,-103.48421,118.36393
1.764e-008,-103.55093,131.67958
1.765e-008,-103.60754,144.88542
1.766e-008,-103.65102,157.98824
1.767e-008,-103.67864,170.9987
1.768e-008,-103.68786,-176.06903
1.769e-008,-103.67654,-163.19751
1.77e-008,-103.64304,-150.36668
1.771e-008,-103.5864,-137.5531
1.772e-008,-103.50623,-124.7342
1.773e-008,-103.40311,-111.88615
1.774e-008,-103.27798,-98.986588
1.775e-008,-103.13264,-86.015305
1.776e-008,-102.96932,-72.955017
1.777e-008,-102.79057,-59.792759
1.778e-008,-102.59911,-46.517586
1.779e-008,-102.39793,-33.122417
1.78e-008,-102.18986,-19.60457
1.781e-008,-101.97765,-5.9634662
1.782e-008,-101.76385,7.7995329
1.783e-008,-101.55088,21.679842
1.784e-008,-101.34092,35.672352
1.785e-008,-101.13575,49.770016
1.786e-008,-100.93713,63.965889
1.787e-008,-100.74651,78.251518
1.788e-008,-100.5651,92.619537
1.789e-008,-100.39395,107.06065
1.79e-008,-100.23403,121.56761
1.791e-008,-100.08605,136.13161
1.792e-008,-99.950722,150.74484
1.793e-008,-99.828522,165.39948
1.794e-008,-99.71991,-179.91176
1.795e-008,-99.625298,-165.19617
1.796e-008,-99.544968,-150.46143
1.797e-008,-99.479179,-135.71413
1.798e-008,-99.428131,-120.96074
1.799e-008,-99.391991,-106.20818
1.8e-008,-99.370865,-91.463684
1.801e-008,-99.364845,-76.733032
1.802e-008,-99.374001,-62.022942
1.803e-008,-99.398293,-47.340664
1.804e-008,-99.437721,-32.692303
1.805e-008,-99.492134,-18.085243
1.806e-008,-99.561493,-3.5259769
1.807e-008,-99.645569,10.977613
1.808e-008,-99.744041,25.418205
1.809e-008,-99.856636,39.788586
1.81e-008,-99.982964,54.079998
1.811e-008,-100.12236,68.284294
1.812e-008,-100.27416,82.393082
1.813e-008,-100.43752,96.397667
1.814e-008,-100.6115,110.28888
1.815e-008,-100.79475,124.05807
1.816e-008,-100.98583,137.69658
1.817e-008,-101.18304,151.19611
1.818e-008,-101.38438,164.54939
1.819e-008,-101.58745,177.75011
1.82e-008,-101.78969,-169.20668
1.821e-008,-101.98811,-156.32213
1.822e-008,-102.17971,-143.597
1.823e-008,-102.36104,-131.0265
1.824e-008,-102.52877,-118.60248
1.825e-008,-102.67956,-106.31313
1.826e-008,-102.81037,-94.141449
1.827e-008,-102.91853,-82.065849
1.828e-008,-103.00187,-70.062401
1.829e-008,-103.05913,-58.102951
1.83e-008,-103.08963,-46.159527
1.831e-008,-103.09381,-34.202087
1.832e-008,-103.07283,-22.203522
1.833e-008,-103.02849,-10.138966
1.834e-008,-102.96329,2.0125978
1.835e-008,-102.8802,14.268991
1.836e-008,-102.78217,26.642439
1.837e-008,-102.67256,39.14146
1.838e-008,-102.55428,51.770336
1.839e-008,-102.4305,64.530083
1.84e-008,-102.30379,77.419434
1.841e-008,-102.17657,90.433571
1.842e-008,-102.05095,103.56746
1.843e-008,-101.92873,116.81416
1.844e-008,-101.8115,130.16638
1.845e-008,-101.70044,143.61592
1.846e-008,-101.59651,157.15578
1.847e-008,-101.5006,170.77724
1.848e-008,-101.41325,-175.52652
1.849e-008,-101.33498,-161.76323
1.85e-008,-101.26598,-147.93887
1.851e-008,-101.20654,-134.06065
1.852e-008,-101.15681,-120.13344
1.853e-008,-101.11671,-106.16347
1.854e-008,-101.08629,-92.154617
1.855e-008,-101.06542,-78.112259
1.856e-008,-101.05406,-64.039894
1.857e-008,-101.052,-49.941223
1.858e-008,-101.05914,-35.819191
1.859e-008,-101.07523,-21.676582
1.86e-008,-101.1002,-7.5164866
1.861e-008,-101.13381,6.6593399
1.862e-008,-101.17595,20.848866
1.863e-008,-101.22641,35.050434
1.864e-008,-101.28513,49.262226
1.865e-008,-101.35192,63.482948
1.866e-008,-101.42681,77.711533
1.867e-008,-101.50961,91.946571
1.868e-008,-101.60036,106.18675
1.869e-008,-101.69902,120.43096
1.87e-008,-101.80569,134.67813
1.871e-008,-101.9203,148.92682
1.872e-008,-102.04301,163.17532
1.873e-008,-102.17387,177.4222
1.874e-008,-102.31312,-168.33423
1.875e-008,-102.4609,-154.09633
1.876e-008,-102.61727,-139.86697
1.877e-008,-102.78253,-125.64851
1.878e-008,-102.95692,-111.44493
1.879e-008,-103.14064,-97.25943
1.88e-008,-103.33389,-83.096718
1.881e-008,-103.53688,-68.961723
1.882e-008,-103.74984,-54.860641
1.883e-008,-103.973,-40.799408
1.884e-008,-104.20629,-26.78616
1.885e-008,-104.44999,-12.828374
1.886e-008,-104.70389,1.0639752
1.887e-008,-104.96793,14.880634
1.888e-008,-105.24168,28.610472
1.889e-008,-105.52472,42.240452
1.89e-008,-105.81623,55.756737
1.891e-008,-106.11507,69.144272
1.892e-008,-106.41975,82.388504
1.893e-008,-106.72823,95.472076
1.894e-008,-107.03799,108.3791
1.895e-008,-107.34568,121.09408
1.896e-008,-107.64749,133.6037
1.897e-008,-107.93846,145.89804
1.898e-008,-108.21316,157.97253
1.899e-008,-108.46542,169.82735
1.9e-008,-108.68871,-178.52515
1.901e-008,-108.87633,-167.06371
1.902e-008,-109.02223,-155.75601
1.903e-008,-109.12124,-144.55675
1.904e-008,-109.1699,-133.41528
1.905e-008,-109.16669,-122.27148
1.906e-008,-109.11234,-111.06801
1.907e-008,-109.00962,-99.745491
1.908e-008,-108.86338,-88.259995
1.909e-008,-108.6795,-76.571281
1.91e-008,-108.46442,-64.653358
1.911e-008,-108.22545,-52.491661
1.912e-008,-107.9688,-40.079861
1.913e-008,-107.70053,-27.420473
1.914e-008,-107.42606,-14.522917
1.915e-008,-107.14987,-1.3971747
1.916e-008,-106.87572,11.939506
1.917e-008,-106.6069,25.472382
1.918e-008,-106.34549,39.183231
1.919e-008,-106.0939,53.056763
1.92e-008,-105.85336,67.078049
1.921e-008,-105.62506,81.231339
1.922e-008,-105.4099,95.502899
1.923e-008,-105.20855,109.8811
1.924e-008,-105.02148,124.35332
1.925e-008,-104.84907,138.90923
1.926e-008,-104.69158,153.53972
1.927e-008,-104.54903,168.23631
1.928e-008,-104.42165,-177.01054
1.929e-008,-104.30953,-162.20633
1.93e-008,-104.2126,-147.35713
1.931e-008,-104.13094,-132.47003
1.932e-008,-104.06467,-117.55019
1.933e-008,-104.01355,-102.60195
1.934e-008,-103.97793,-87.629494
1.935e-008,-103.95752,-72.636848
1.936e-008,-103.95267,-57.629292
1.937e-008,-103.96319,-42.607811
1.938e-008,-103.98943,-27.576
1.939e-008,-104.03143,-12.537982
1.94e-008,-104.08927,2.5051305
1.941e-008,-104.16327,17.550343
1.942e-008,-104.25356,32.595592
1.943e-008,-104.36065,47.638847
1.944e-008,-104.48444,62.67836
1.945e-008,-104.62599,77.712296
1.946e-008,-104.78522,92.737862
1.947e-008,-104.96304,107.75441
1.948e-008,-105.15993,122.76021
1.949e-008,-105.37671,137.75369
1.95e-008,-105.61424,152.73161
1.951e-008,-105.87355,167.69337
1.952e-008,-106.15582,-177.36334
1.953e-008,-106.46256,-162.4422
1.954e-008,-106.79516,-147.54422
1.955e-008,-107.15575,-132.67609
1.956e-008,-107.54623,-117.83823
1.957e-008,-107.96957,-103.03905
1.958e-008,-108.42867,-88.284782
1.959e-008,-108.92728,-73.58168
1.96e-008,-109.46999,-58.9445
1.961e-008,-110.06198,-44.385769
1.962e-008,-110.7102,-29.926405
1.963e-008,-111.42283,-15.595144
1.964e-008,-112.21047,-1.4262999
1.965e-008,-113.08634,12.518631
1.966e-008,-114.06773,26.161554
1.967e-008,-115.17751,39.37104
1.968e-008,-116.44611,51.942139
1.969e-008,-117.91199,63.521969
1.97e-008,-119.62309,73.472572
1.971e-008,-121.61636,80.588028
1.972e-008,-123.82642,82.55928
1.973e-008,-125.74221,76.165718
1.974e-008,-126.10369,62.873463
1.975e-008,-124.57439,53.617332
1.976e-008,-122.40746,53.324097
1.977e-008,-120.3694,59.232182
1.978e-008,-118.6141,68.615326
1.979e-008,-117.12009,79.970085
1.98e-008,-115.83968,92.521973
1.981e-008,-114.73093,105.84774
1.982e-008,-113.76093,119.70307
1.983e-008,-112.90559,133.94147
1.984e-008,-112.14565,148.46622
1.985e-008,-111.46727,163.21504
1.986e-008,-110.85929,178.14517
1.987e-008,-110.3128,-166.77528
1.988e-008,-109.8208,-151.56505
1.989e-008,-109.37767,-136.24217
1.99e-008,-108.97891,-120.817
1.991e-008,-108.62057,-105.29914
1.992e-008,-108.29951,-89.694557
1.993e-008,-108.01299,-74.007477
1.994e-008,-107.75884,-58.24086
1.995e-008,-107.535,-42.397503
1.996e-008,-107.33985,-26.477953
1.997e-008,-107.17192,-10.482776
1.998e-008,-107.02998,5.5882845
1.999e-008,-106.91286,21.735973
2e-008,-106.81946,37.961773
END

