!CSV A.01.01
!Keysight Technologies,N5227B,US58420762,A.13.80.08
!Date: Monday, November 20, 2023 15:21:00
!Source: Standard

BEGIN CH1_DATA
Time(s),S21(DB),S21(DEG)
1e-008,-115.27517,141.68735
1.001e-008,-115.63982,156.08617
1.002e-008,-116.07217,170.34167
1.003e-008,-116.576,-175.5871
1.004e-008,-117.15686,-161.75365
1.005e-008,-117.82069,-148.22447
1.006e-008,-118.57401,-135.09071
1.007e-008,-119.42386,-122.47699
1.008e-008,-120.37636,-110.56627
1.009e-008,-121.43285,-99.597816
1.01e-008,-122.58552,-89.932983
1.011e-008,-123.80182,-82.022202
1.012e-008,-125.00095,-76.393379
1.013e-008,-126.02767,-73.398994
1.014e-008,-126.66158,-72.638504
1.015e-008,-126.73751,-72.617844
1.016e-008,-126.29328,-71.362701
1.017e-008,-125.53087,-67.729507
1.018e-008,-124.65929,-61.629242
1.019e-008,-123.80878,-53.516537
1.02e-008,-123.04395,-43.925522
1.021e-008,-122.38927,-33.290398
1.022e-008,-121.85016,-21.945778
1.023e-008,-121.42542,-10.129745
1.024e-008,-121.10999,1.9708767
1.025e-008,-120.89857,14.204718
1.026e-008,-120.78619,26.452112
1.027e-008,-120.76794,38.590233
1.028e-008,-120.83836,50.506409
1.029e-008,-120.99078,62.071114
1.03e-008,-121.21574,73.152748
1.031e-008,-121.49969,83.604286
1.032e-008,-121.81996,93.264587
1.033e-008,-122.1434,101.99397
1.034e-008,-122.42153,109.70364
1.035e-008,-122.59492,116.43316
1.036e-008,-122.60196,122.42135
1.037e-008,-122.3998,128.10388
1.038e-008,-121.98196,134.02933
1.039e-008,-121.38282,140.67041
1.04e-008,-120.65818,148.32376
1.041e-008,-119.86842,157.07445
1.042e-008,-119.06141,166.86287
1.043e-008,-118.27216,177.56474
1.044e-008,-117.52203,-170.96249
1.045e-008,-116.82343,-158.85672
1.046e-008,-116.18286,-146.23253
1.047e-008,-115.60339,-133.18752
1.048e-008,-115.08573,-119.80161
1.049e-008,-114.6296,-106.13921
1.05e-008,-114.23383,-92.251907
1.051e-008,-113.89783,-78.181198
1.052e-008,-113.62003,-63.96257
1.053e-008,-113.39997,-49.628429
1.054e-008,-113.237,-35.200672
1.055e-008,-113.1309,-20.704266
1.056e-008,-113.08153,-6.1596875
1.057e-008,-113.08968,8.4137878
1.058e-008,-113.15598,22.998486
1.059e-008,-113.28191,37.571945
1.06e-008,-113.46923,52.11533
1.061e-008,-113.72063,66.604507
1.062e-008,-114.03897,81.013962
1.063e-008,-114.42799,95.309952
1.064e-008,-114.89237,109.45243
1.065e-008,-115.43787,123.39032
1.066e-008,-116.07051,137.05592
1.067e-008,-116.79791,150.35933
1.068e-008,-117.62767,163.17368
1.069e-008,-118.56681,175.32288
1.07e-008,-119.61857,-173.44019
1.071e-008,-120.77686,-163.47575
1.072e-008,-122.01083,-155.26021
1.073e-008,-123.24139,-149.34819
1.074e-008,-124.30702,-146.13248
1.075e-008,-124.97619,-145.23788
1.076e-008,-125.0716,-145.06795
1.077e-008,-124.63383,-143.53117
1.078e-008,-123.88373,-139.40385
1.079e-008,-123.04259,-132.64691
1.08e-008,-122.24738,-123.7391
1.081e-008,-121.56516,-113.23738
1.082e-008,-121.02264,-101.57221
1.083e-008,-120.63058,-89.07058
1.084e-008,-120.39383,-75.95063
1.085e-008,-120.31792,-62.378822
1.086e-008,-120.41194,-48.468742
1.087e-008,-120.6918,-34.313221
1.088e-008,-121.18249,-19.984539
1.089e-008,-121.92733,-5.559464
1.09e-008,-122.99677,8.8838491
1.091e-008,-124.5168,23.209713
1.092e-008,-126.73675,37.133682
1.093e-008,-130.25847,49.760517
1.094e-008,-137.26454,55.46566
1.095e-008,-142.82159,-58.484882
1.096e-008,-131.35881,-68.359154
1.097e-008,-126.1758,-56.815659
1.098e-008,-122.78789,-42.907715
1.099e-008,-120.25778,-28.24765
1.1e-008,-118.24055,-13.250479
1.101e-008,-116.56883,1.937324
1.102e-008,-115.15025,17.240747
1.103e-008,-113.92775,32.623909
1.104e-008,-112.86423,48.062923
1.105e-008,-111.93346,63.544674
1.106e-008,-111.1172,79.055656
1.107e-008,-110.40174,94.589813
1.108e-008,-109.77695,110.14096
1.109e-008,-109.23531,125.70481
1.11e-008,-108.77089,141.2744
1.111e-008,-108.37933,156.84755
1.112e-008,-108.05762,172.41982
1.113e-008,-107.80357,-172.01358
1.114e-008,-107.61599,-156.45604
1.115e-008,-107.49432,-140.9129
1.116e-008,-107.43899,-125.38926
1.117e-008,-107.45112,-109.89106
1.118e-008,-107.53281,-94.42614
1.119e-008,-107.68681,-79.003868
1.12e-008,-107.91748,-63.634701
1.121e-008,-108.22997,-48.334167
1.122e-008,-108.63155,-33.121178
1.123e-008,-109.13138,-18.022688
1.124e-008,-109.74158,-3.075484
1.125e-008,-110.47844,11.666894
1.126e-008,-111.36344,26.123178
1.127e-008,-112.4265,40.162666
1.128e-008,-113.70953,53.573532
1.129e-008,-115.27207,65.967171
1.13e-008,-117.19868,76.581741
1.131e-008,-119.58869,83.770569
1.132e-008,-122.42213,83.743576
1.133e-008,-124.76618,70.245186
1.134e-008,-124.25456,49.779823
1.135e-008,-121.71277,41.781445
1.136e-008,-119.24265,45.005398
1.137e-008,-117.27825,53.653683
1.138e-008,-115.76492,64.922379
1.139e-008,-114.61258,77.58403
1.14e-008,-113.75657,91.042641
1.141e-008,-113.15633,104.97434
1.142e-008,-112.79012,119.18634
1.143e-008,-112.65209,133.5407
1.144e-008,-112.75153,147.92636
1.145e-008,-113.11386,162.22157
1.146e-008,-113.7903,176.26224
1.147e-008,-114.87333,-170.23567
1.148e-008,-116.53616,-157.8806
1.149e-008,-119.13348,-148.35596
1.15e-008,-123.42352,-148.3817
1.151e-008,-127.8686,169.31331
1.152e-008,-122.00289,129.55334
1.153e-008,-116.62744,130.33261
1.154e-008,-112.89353,140.15392
1.155e-008,-110.05608,152.7375
1.156e-008,-107.76505,166.49068
1.157e-008,-105.84381,-179.16069
1.158e-008,-104.19304,-164.47253
1.159e-008,-102.75148,-149.5786
1.16e-008,-101.47916,-134.55484
1.161e-008,-100.34873,-119.45071
1.162e-008,-99.340843,-104.29923
1.163e-008,-98.441505,-89.125572
1.164e-008,-97.64064,-73.95018
1.165e-008,-96.930901,-58.791031
1.166e-008,-96.307198,-43.66563
1.167e-008,-95.766266,-28.592325
1.168e-008,-95.306313,-13.590959
1.169e-008,-94.927048,1.3147584
1.17e-008,-94.629494,16.096102
1.171e-008,-94.416092,30.716642
1.172e-008,-94.290787,45.128498
1.173e-008,-94.25898,59.267914
1.174e-008,-94.327751,73.046333
1.175e-008,-94.505585,86.338646
1.176e-008,-94.801575,98.963158
1.177e-008,-95.223267,110.65123
1.178e-008,-95.770073,121.00153
1.179e-008,-96.417831,129.42841
1.18e-008,-97.084282,135.16379
1.181e-008,-97.573608,137.53273
1.182e-008,-97.563675,136.84035
1.183e-008,-96.79528,135.27777
1.184e-008,-95.348793,135.75208
1.185e-008,-93.547821,139.62651
1.186e-008,-91.666756,146.63824
1.187e-008,-89.844231,156.00587
1.188e-008,-88.13018,167.02966
1.189e-008,-86.534058,179.20882
1.19e-008,-85.049965,-167.79428
1.191e-008,-83.667282,-154.20581
1.192e-008,-82.374863,-140.17926
1.193e-008,-81.162483,-125.82121
1.194e-008,-80.021225,-111.20707
1.195e-008,-78.943459,-96.391617
1.196e-008,-77.922707,-81.415276
1.197e-008,-76.953468,-66.308533
1.198e-008,-76.031067,-51.094723
1.199e-008,-75.151497,-35.792049
1.2e-008,-74.31131,-20.414806
1.201e-008,-73.507515,-4.9744959
1.202e-008,-72.737534,10.519651
1.203e-008,-71.999092,26.060064
1.204e-008,-71.290192,41.640488
1.205e-008,-70.609062,57.255749
1.206e-008,-69.95414,72.901466
1.207e-008,-69.324028,88.573959
1.208e-008,-68.717468,104.27012
1.209e-008,-68.133331,119.98722
1.21e-008,-67.57061,135.72296
1.211e-008,-67.028366,151.47533
1.212e-008,-66.505768,167.24257
1.213e-008,-66.002045,-176.97688
1.214e-008,-65.51651,-161.18434
1.215e-008,-65.048508,-145.38103
1.216e-008,-64.59745,-129.56801
1.217e-008,-64.162811,-113.74624
1.218e-008,-63.744068,-97.916565
1.219e-008,-63.340771,-82.079765
1.22e-008,-62.952488,-66.236534
1.221e-008,-62.578819,-50.387497
1.222e-008,-62.219398,-34.533234
1.223e-008,-61.873878,-18.674269
1.224e-008,-61.541939,-2.8110828
1.225e-008,-61.223282,13.055876
1.226e-008,-60.917629,28.926207
1.227e-008,-60.624718,44.799522
1.228e-008,-60.344303,60.675472
1.229e-008,-60.07616,76.553734
1.23e-008,-59.820072,92.433983
1.231e-008,-59.57584,108.31594
1.232e-008,-59.343273,124.19933
1.233e-008,-59.1222,140.08391
1.234e-008,-58.912449,155.96939
1.235e-008,-58.713875,171.85558
1.236e-008,-58.526325,-172.25777
1.237e-008,-58.349663,-156.37085
1.238e-008,-58.183769,-140.48387
1.239e-008,-58.028515,-124.59705
1.24e-008,-57.883797,-108.71056
1.241e-008,-57.749504,-92.8246
1.242e-008,-57.625542,-76.939346
1.243e-008,-57.511822,-61.054974
1.244e-008,-57.408257,-45.171658
1.245e-008,-57.314766,-29.289572
1.246e-008,-57.231285,-13.408886
1.247e-008,-57.157738,2.470233
1.248e-008,-57.094067,18.34763
1.249e-008,-57.040215,34.223122
1.25e-008,-56.996132,50.096558
1.251e-008,-56.961769,65.967773
1.252e-008,-56.937084,81.836594
1.253e-008,-56.922039,97.702873
1.254e-008,-56.916599,113.56642
1.255e-008,-56.920738,129.42709
1.256e-008,-56.934429,145.28471
1.257e-008,-56.957649,161.13908
1.258e-008,-56.990379,176.99007
1.259e-008,-57.032612,-167.16254
1.26e-008,-57.084332,-151.31889
1.261e-008,-57.145535,-135.4792
1.262e-008,-57.216217,-119.64365
1.263e-008,-57.296383,-103.81242
1.264e-008,-57.386028,-87.985703
1.265e-008,-57.485168,-72.163712
1.266e-008,-57.593811,-56.346653
1.267e-008,-57.711971,-40.53474
1.268e-008,-57.839664,-24.728191
1.269e-008,-57.97691,-8.9272451
1.27e-008,-58.123737,6.8678842
1.271e-008,-58.28017,22.65694
1.272e-008,-58.446236,38.439682
1.273e-008,-58.621971,54.215847
1.274e-008,-58.807411,69.985168
1.275e-008,-59.00259,85.747383
1.276e-008,-59.207554,101.5022
1.277e-008,-59.422348,117.24931
1.278e-008,-59.647015,132.98842
1.279e-008,-59.881607,148.71921
1.28e-008,-60.126175,164.44133
1.281e-008,-60.380775,-179.84554
1.282e-008,-60.645466,-164.14174
1.283e-008,-60.920303,-148.44766
1.284e-008,-61.205353,-132.76369
1.285e-008,-61.500671,-117.09019
1.286e-008,-61.806332,-101.42761
1.287e-008,-62.122391,-85.77636
1.288e-008,-62.448925,-70.136856
1.289e-008,-62.786003,-54.509598
1.29e-008,-63.133686,-38.89502
1.291e-008,-63.492054,-23.293619
1.292e-008,-63.861172,-7.7058983
1.293e-008,-64.241104,7.8676257
1.294e-008,-64.631935,23.426428
1.295e-008,-65.033707,38.969955
1.296e-008,-65.44651,54.497677
1.297e-008,-65.870384,70.009003
1.298e-008,-66.305397,85.503372
1.299e-008,-66.751595,100.98021
1.3e-008,-67.20903,116.43893
1.301e-008,-67.677734,131.87897
1.302e-008,-68.157745,147.29973
1.303e-008,-68.649078,162.70068
1.304e-008,-69.151741,178.08128
1.305e-008,-69.665726,-166.55896
1.306e-008,-70.191002,-151.2205
1.307e-008,-70.727547,-135.90378
1.308e-008,-71.275284,-120.60907
1.309e-008,-71.834129,-105.33666
1.31e-008,-72.403969,-90.08667
1.311e-008,-72.984665,-74.859123
1.312e-008,-73.576027,-59.653812
1.313e-008,-74.177849,-44.470413
1.314e-008,-74.789864,-29.308334
1.315e-008,-75.411766,-14.166714
1.316e-008,-76.043198,0.95560986
1.317e-008,-76.683739,16.060221
1.318e-008,-77.332916,31.149014
1.319e-008,-77.990181,46.224453
1.32e-008,-78.6549,61.289509
1.321e-008,-79.326385,76.347771
1.322e-008,-80.003838,91.403435
1.323e-008,-80.686378,106.46144
1.324e-008,-81.373016,121.52748
1.325e-008,-82.06266,136.608
1.326e-008,-82.754097,151.71034
1.327e-008,-83.445999,166.84247
1.328e-008,-84.136871,-177.98679
1.329e-008,-84.825096,-162.76799
1.33e-008,-85.508896,-147.49135
1.331e-008,-86.186317,-132.14662
1.332e-008,-86.855225,-116.72372
1.333e-008,-87.513306,-101.21307
1.334e-008,-88.158066,-85.605713
1.335e-008,-88.786827,-69.894341
1.336e-008,-89.396767,-54.073612
1.337e-008,-89.984993,-38.140648
1.338e-008,-90.548523,-22.09613
1.339e-008,-91.084473,-5.9442325
1.34e-008,-91.590096,10.306495
1.341e-008,-92.062973,26.643505
1.342e-008,-92.501099,43.050037
1.343e-008,-92.903053,59.505577
1.344e-008,-93.268059,75.987
1.345e-008,-93.596138,92.469521
1.346e-008,-93.888016,108.92769
1.347e-008,-94.145126,125.33711
1.348e-008,-94.369545,141.67487
1.349e-008,-94.563812,157.92162
1.35e-008,-94.730835,174.06036
1.351e-008,-94.873611,-169.92125
1.352e-008,-94.995255,-154.03227
1.353e-008,-95.098724,-138.27788
1.354e-008,-95.186798,-122.66035
1.355e-008,-95.262016,-107.17906
1.356e-008,-95.326622,-91.830887
1.357e-008,-95.382492,-76.610725
1.358e-008,-95.43132,-61.511932
1.359e-008,-95.474388,-46.526752
1.36e-008,-95.512817,-31.646368
1.361e-008,-95.547478,-16.861307
1.362e-008,-95.579071,-2.161412
1.363e-008,-95.608124,12.463849
1.364e-008,-95.635086,27.025034
1.365e-008,-95.660324,41.532837
1.366e-008,-95.684204,55.99828
1.367e-008,-95.706955,70.431831
1.368e-008,-95.728897,84.844025
1.369e-008,-95.750381,99.244965
1.37e-008,-95.771706,113.64461
1.371e-008,-95.793213,128.0518
1.372e-008,-95.815277,142.47556
1.373e-008,-95.838318,156.92372
1.374e-008,-95.862755,171.40379
1.375e-008,-95.888985,-174.07748
1.376e-008,-95.917419,-159.51425
1.377e-008,-95.948486,-144.90121
1.378e-008,-95.982544,-130.23373
1.379e-008,-96.019951,-115.50786
1.38e-008,-96.060966,-100.72049
1.381e-008,-96.105873,-85.869118
1.382e-008,-96.154869,-70.951622
1.383e-008,-96.208054,-55.966778
1.384e-008,-96.265434,-40.9133
1.385e-008,-96.327057,-25.79141
1.386e-008,-96.392792,-10.601107
1.387e-008,-96.462456,4.6571131
1.388e-008,-96.535835,19.981997
1.389e-008,-96.612556,35.372086
1.39e-008,-96.692337,50.825005
1.391e-008,-96.774658,66.338425
1.392e-008,-96.859016,81.909615
1.393e-008,-96.944916,97.534676
1.394e-008,-97.031761,113.20988
1.395e-008,-97.11898,128.93089
1.396e-008,-97.205963,144.69307
1.397e-008,-97.292084,160.49103
1.398e-008,-97.376831,176.31906
1.399e-008,-97.459572,-167.82893
1.4e-008,-97.539818,-151.95839
1.401e-008,-97.617134,-136.07655
1.402e-008,-97.691116,-120.18962
1.403e-008,-97.761383,-104.30426
1.404e-008,-97.827728,-88.426826
1.405e-008,-97.889992,-72.563774
1.406e-008,-97.94812,-56.721695
1.407e-008,-98.002075,-40.90575
1.408e-008,-98.051964,-25.121832
1.409e-008,-98.097946,-9.3747187
1.41e-008,-98.140282,6.3310456
1.411e-008,-98.179237,21.991632
1.412e-008,-98.215225,37.604034
1.413e-008,-98.248596,53.165333
1.414e-008,-98.279877,68.673447
1.415e-008,-98.309479,84.12693
1.416e-008,-98.337959,99.524849
1.417e-008,-98.365852,114.86684
1.418e-008,-98.393745,130.1526
1.419e-008,-98.422127,145.38274
1.42e-008,-98.45163,160.55789
1.421e-008,-98.48278,175.679
1.422e-008,-98.51622,-169.25305
1.423e-008,-98.55246,-154.23657
1.424e-008,-98.592056,-139.27069
1.425e-008,-98.635574,-124.35359
1.426e-008,-98.683533,-109.4845
1.427e-008,-98.736465,-94.661873
1.428e-008,-98.794891,-79.88475
1.429e-008,-98.859245,-65.151962
1.43e-008,-98.930008,-50.463451
1.431e-008,-99.007561,-35.818085
1.432e-008,-99.092308,-21.215874
1.433e-008,-99.184608,-6.6567121
1.434e-008,-99.284737,7.8588934
1.435e-008,-99.392929,22.330751
1.436e-008,-99.509384,36.757938
1.437e-008,-99.634232,51.139664
1.438e-008,-99.767525,65.474388
1.439e-008,-99.909271,79.761406
1.44e-008,-100.05929,93.998909
1.441e-008,-100.21745,108.18578
1.442e-008,-100.38343,122.32008
1.443e-008,-100.55682,136.40137
1.444e-008,-100.73714,150.42805
1.445e-008,-100.92377,164.39993
1.446e-008,-101.11597,178.31664
1.447e-008,-101.3129,-167.82108
1.448e-008,-101.51364,-154.01157
1.449e-008,-101.71722,-140.25272
1.45e-008,-101.92242,-126.54043
1.451e-008,-102.12821,-112.86998
1.452e-008,-102.3334,-99.234505
1.453e-008,-102.5369,-85.625458
1.454e-008,-102.73752,-72.033554
1.455e-008,-102.93448,-58.446392
1.456e-008,-103.12685,-44.850925
1.457e-008,-103.31411,-31.232485
1.458e-008,-103.49581,-17.574694
1.459e-008,-103.67186,-3.8606727
1.46e-008,-103.84237,9.9273634
1.461e-008,-104.0078,23.807962
1.462e-008,-104.1687,37.799793
1.463e-008,-104.32601,51.920116
1.464e-008,-104.48061,66.187523
1.465e-008,-104.6337,80.618378
1.466e-008,-104.78634,95.23037
1.467e-008,-104.93966,110.03883
1.468e-008,-105.0946,125.05939
1.469e-008,-105.25188,140.30684
1.47e-008,-105.41193,155.7957
1.471e-008,-105.57494,171.53902
1.472e-008,-105.74046,-172.44901
1.473e-008,-105.90755,-156.15669
1.474e-008,-106.07464,-139.57176
1.475e-008,-106.23958,-122.68577
1.476e-008,-106.39922,-105.49207
1.477e-008,-106.54999,-87.987328
1.478e-008,-106.68723,-70.17395
1.479e-008,-106.80614,-52.061787
1.48e-008,-106.90138,-33.667538
1.481e-008,-106.96767,-15.019721
1.482e-008,-107.00014,3.8475454
1.483e-008,-106.99514,22.886848
1.484e-008,-106.95021,42.047882
1.485e-008,-106.86448,61.274162
1.486e-008,-106.73915,80.510559
1.487e-008,-106.5769,99.702446
1.488e-008,-106.38213,118.8077
1.489e-008,-106.16022,137.7874
1.49e-008,-105.91685,156.61595
1.491e-008,-105.65826,175.27417
1.492e-008,-105.39019,-166.24492
1.493e-008,-105.11808,-147.94382
1.494e-008,-104.8467,-129.81863
1.495e-008,-104.58015,-111.86223
1.496e-008,-104.32209,-94.063988
1.497e-008,-104.07524,-76.412483
1.498e-008,-103.84202,-58.894398
1.499e-008,-103.62431,-41.497585
1.5e-008,-103.42358,-24.209641
1.501e-008,-103.24081,-7.0187368
1.502e-008,-103.07696,10.087121
1.503e-008,-102.93271,27.117634
1.504e-008,-102.80849,44.083927
1.505e-008,-102.70454,60.993767
1.506e-008,-102.62106,77.857117
1.507e-008,-102.55838,94.681587
1.508e-008,-102.51627,111.4745
1.509e-008,-102.49484,128.24315
1.51e-008,-102.49406,144.99532
1.511e-008,-102.51385,161.73579
1.512e-008,-102.55401,178.47232
1.513e-008,-102.61439,-164.79018
1.514e-008,-102.69482,-148.04416
1.515e-008,-102.79517,-131.28416
1.516e-008,-102.91514,-114.50378
1.517e-008,-103.05441,-97.697433
1.518e-008,-103.21274,-80.857819
1.519e-008,-103.38971,-63.979088
1.52e-008,-103.58495,-47.053749
1.521e-008,-103.79781,-30.075317
1.522e-008,-104.02784,-13.035641
1.523e-008,-104.27435,4.0719581
1.524e-008,-104.5364,21.256311
1.525e-008,-104.81299,38.525707
1.526e-008,-105.10318,55.887585
1.527e-008,-105.40553,73.350121
1.528e-008,-105.71848,90.922417
1.529e-008,-106.04021,108.61127
1.53e-008,-106.36877,126.42503
1.531e-008,-106.70186,144.36913
1.532e-008,-107.03678,162.44821
1.533e-008,-107.37074,-179.33516
1.534e-008,-107.70092,-160.97954
1.535e-008,-108.02389,-142.48903
1.536e-008,-108.33661,-123.86861
1.537e-008,-108.63588,-105.12888
1.538e-008,-108.91894,-86.28125
1.539e-008,-109.18326,-67.345039
1.54e-008,-109.4269,-48.336918
1.541e-008,-109.64854,-29.279013
1.542e-008,-109.84779,-10.19397
1.543e-008,-110.02471,8.8971281
1.544e-008,-110.18045,27.975525
1.545e-008,-110.31647,47.02412
1.546e-008,-110.43502,66.032173
1.547e-008,-110.53876,84.991058
1.548e-008,-110.6303,103.89826
1.549e-008,-110.71224,122.7578
1.55e-008,-110.78717,141.57777
1.551e-008,-110.85746,160.36844
1.552e-008,-110.92487,179.14917
1.553e-008,-110.99058,-162.06229
1.554e-008,-111.05556,-143.24068
1.555e-008,-111.11958,-124.36276
1.556e-008,-111.1819,-105.39988
1.557e-008,-111.24039,-86.326263
1.558e-008,-111.2926,-67.114288
1.559e-008,-111.3342,-47.740276
1.56e-008,-111.36041,-28.185728
1.561e-008,-111.36469,-8.435957
1.562e-008,-111.34016,11.510898
1.563e-008,-111.2792,31.642927
1.564e-008,-111.17391,51.93742
1.565e-008,-111.01783,72.354187
1.566e-008,-110.80574,92.839966
1.567e-008,-110.53442,113.33011
1.568e-008,-110.204,133.75836
1.569e-008,-109.81679,154.05598
1.57e-008,-109.37814,174.16748
1.571e-008,-108.89487,-165.95671
1.572e-008,-108.37502,-146.34726
1.573e-008,-107.82664,-127.02258
1.574e-008,-107.25792,-107.98928
1.575e-008,-106.67592,-89.242607
1.576e-008,-106.08703,-70.770981
1.577e-008,-105.49647,-52.558926
1.578e-008,-104.90852,-34.586597
1.579e-008,-104.32668,-16.83544
1.58e-008,-103.75348,0.71552283
1.581e-008,-103.19094,18.084984
1.582e-008,-102.6406,35.291721
1.583e-008,-102.10345,52.351933
1.584e-008,-101.58023,69.281105
1.585e-008,-101.07134,86.093079
1.586e-008,-100.57713,102.80067
1.587e-008,-100.09756,119.41422
1.588e-008,-99.63269,135.94434
1.589e-008,-99.182343,152.3998
1.59e-008,-98.746323,168.7883
1.591e-008,-98.324402,-174.88293
1.592e-008,-97.916321,-158.60776
1.593e-008,-97.521721,-142.38049
1.594e-008,-97.14032,-126.19581
1.595e-008,-96.771759,-110.04977
1.596e-008,-96.41568,-93.938011
1.597e-008,-96.071747,-77.856827
1.598e-008,-95.739616,-61.803055
1.599e-008,-95.418922,-45.773777
1.6e-008,-95.109337,-29.766214
1.601e-008,-94.810493,-13.777837
1.602e-008,-94.522079,2.1933644
1.603e-008,-94.243736,18.149704
1.604e-008,-93.975182,34.092865
1.605e-008,-93.716057,50.02486
1.606e-008,-93.466057,65.947014
1.607e-008,-93.224899,81.861008
1.608e-008,-92.992287,97.768204
1.609e-008,-92.767906,113.66995
1.61e-008,-92.551514,129.56741
1.611e-008,-92.342827,145.46179
1.612e-008,-92.141556,161.35419
1.613e-008,-91.947487,177.24568
1.614e-008,-91.760361,-166.8629
1.615e-008,-91.579926,-150.97054
1.616e-008,-91.405975,-135.07637
1.617e-008,-91.238281,-119.17948
1.618e-008,-91.076645,-103.27917
1.619e-008,-90.92086,-87.374687
1.62e-008,-90.770729,-71.465401
1.621e-008,-90.626083,-55.550411
1.622e-008,-90.486732,-39.62933
1.623e-008,-90.352531,-23.701513
1.624e-008,-90.223312,-7.7663631
1.625e-008,-90.098946,8.1766224
1.626e-008,-89.979294,24.127819
1.627e-008,-89.86422,40.087772
1.628e-008,-89.753609,56.056789
1.629e-008,-89.647369,72.035255
1.63e-008,-89.545403,88.023552
1.631e-008,-89.447586,104.02176
1.632e-008,-89.353882,120.03034
1.633e-008,-89.264191,136.04936
1.634e-008,-89.178452,152.07901
1.635e-008,-89.096611,168.11938
1.636e-008,-89.018608,-175.8293
1.637e-008,-88.944427,-159.76718
1.638e-008,-88.874016,-143.69406
1.639e-008,-88.807335,-127.61004
1.64e-008,-88.744385,-111.51514
1.641e-008,-88.685127,-95.409332
1.642e-008,-88.629562,-79.29277
1.643e-008,-88.577682,-63.165604
1.644e-008,-88.529488,-47.027981
1.645e-008,-88.48497,-30.879938
1.646e-008,-88.444145,-14.721659
1.647e-008,-88.407021,1.4465882
1.648e-008,-88.373596,17.624634
1.649e-008,-88.343903,33.812336
1.65e-008,-88.31794,50.009426
1.651e-008,-88.295723,66.215721
1.652e-008,-88.277283,82.430908
1.653e-008,-88.262604,98.654884
1.654e-008,-88.25174,114.88728
1.655e-008,-88.24469,131.12796
1.656e-008,-88.241463,147.37668
1.657e-008,-88.242073,163.63324
1.658e-008,-88.246513,179.89729
1.659e-008,-88.254814,-163.83127
1.66e-008,-88.266953,-147.55266
1.661e-008,-88.282951,-131.26717
1.662e-008,-88.302788,-114.97498
1.663e-008,-88.326447,-98.676247
1.664e-008,-88.35392,-82.371231
1.665e-008,-88.385185,-66.060081
1.666e-008,-88.420212,-49.74305
1.667e-008,-88.458969,-33.420269
1.668e-008,-88.501411,-17.091951
1.669e-008,-88.547493,-0.75828415
1.67e-008,-88.59716,15.580401
1.671e-008,-88.650352,31.924124
1.672e-008,-88.707001,48.27256
1.673e-008,-88.767029,64.625458
1.674e-008,-88.830368,80.982605
1.675e-008,-88.896904,97.343819
1.676e-008,-88.966568,113.70872
1.677e-008,-89.039238,130.07716
1.678e-008,-89.114815,146.44868
1.679e-008,-89.193184,162.82304
1.68e-008,-89.274223,179.19984
1.681e-008,-89.357811,-164.42128
1.682e-008,-89.443825,-148.04082
1.683e-008,-89.532143,-131.65919
1.684e-008,-89.622604,-115.27692
1.685e-008,-89.715096,-98.894585
1.686e-008,-89.809471,-82.51281
1.687e-008,-89.905609,-66.132133
1.688e-008,-90.003372,-49.753376
1.689e-008,-90.102631,-33.377258
1.69e-008,-90.203255,-17.004436
1.691e-008,-90.305138,-0.63591099
1.692e-008,-90.408173,15.727509
1.693e-008,-90.512238,32.084866
1.694e-008,-90.617249,48.435219
1.695e-008,-90.723122,64.777458
1.696e-008,-90.829796,81.110573
1.697e-008,-90.93721,97.433517
1.698e-008,-91.045319,113.74506
1.699e-008,-91.154106,130.04407
1.7e-008,-91.263557,146.32939
1.701e-008,-91.373688,162.59973
1.702e-008,-91.484512,178.85396
1.703e-008,-91.596085,-164.90929
1.704e-008,-91.708481,-148.69118
1.705e-008,-91.821777,-132.49309
1.706e-008,-91.936073,-116.31618
1.707e-008,-92.051483,-100.16182
1.708e-008,-92.168175,-84.031303
1.709e-008,-92.286285,-67.925827
1.71e-008,-92.406006,-51.846855
1.711e-008,-92.527519,-35.795536
1.712e-008,-92.651047,-19.773441
1.713e-008,-92.776802,-3.7816319
1.714e-008,-92.905037,12.178302
1.715e-008,-93.035995,28.104944
1.716e-008,-93.169945,43.996902
1.717e-008,-93.307144,59.852749
1.718e-008,-93.447884,75.670784
1.719e-008,-93.592453,91.44931
1.72e-008,-93.74115,107.18671
1.721e-008,-93.894218,122.88099
1.722e-008,-94.05201,138.53012
1.723e-008,-94.214775,154.13191
1.724e-008,-94.382782,169.68414
1.725e-008,-94.556335,-174.8158
1.726e-008,-94.73568,-159.37076
1.727e-008,-94.921059,-143.98343
1.728e-008,-95.11264,-128.65762
1.729e-008,-95.310654,-113.39661
1.73e-008,-95.515236,-98.204308
1.731e-008,-95.726471,-83.085243
1.732e-008,-95.944382,-68.043976
1.733e-008,-96.168983,-53.085392
1.734e-008,-96.400108,-38.215199
1.735e-008,-96.637604,-23.439463
1.736e-008,-96.881065,-8.7640409
1.737e-008,-97.130043,5.8038621
1.738e-008,-97.383949,20.257624
1.739e-008,-97.641922,34.589699
1.74e-008,-97.902893,48.793167
1.741e-008,-98.165573,62.860493
1.742e-008,-98.428383,76.78521
1.743e-008,-98.689453,90.560982
1.744e-008,-98.946625,104.18295
1.745e-008,-99.197357,117.64769
1.746e-008,-99.438858,130.95496
1.747e-008,-99.668091,144.10631
1.748e-008,-99.881821,157.10712
1.749e-008,-100.07671,169.96683
1.75e-008,-100.24962,-177.30057
1.751e-008,-100.39751,-164.67566
1.752e-008,-100.5178,-152.13733
1.753e-008,-100.60858,-139.65746
1.754e-008,-100.66874,-127.20762
1.755e-008,-100.69784,-114.75661
1.756e-008,-100.69646,-102.27519
1.757e-008,-100.66599,-89.733505
1.758e-008,-100.60854,-77.106613
1.759e-008,-100.52681,-64.371895
1.76e-008,-100.42397,-51.511322
1.761e-008,-100.30325,-38.512039
1.762e-008,-100.16812,-25.365499
1.763e-008,-100.02178,-12.067009
1.764e-008,-99.867416,1.3842394
1.765e-008,-99.707809,14.987605
1.766e-008,-99.545395,28.738459
1.767e-008,-99.382584,42.631718
1.768e-008,-99.221184,56.660576
1.769e-008,-99.062866,70.818039
1.77e-008,-98.908951,85.096779
1.771e-008,-98.760506,99.488152
1.772e-008,-98.618446,113.98563
1.773e-008,-98.483528,128.5807
1.774e-008,-98.356232,143.26767
1.775e-008,-98.236977,158.03886
1.776e-008,-98.126144,172.8882
1.777e-008,-98.023911,-172.18983
1.778e-008,-97.930313,-157.20111
1.779e-008,-97.845451,-142.15044
1.78e-008,-97.769356,-127.04202
1.781e-008,-97.702042,-111.88076
1.782e-008,-97.643272,-96.669907
1.783e-008,-97.593025,-81.413284
1.784e-008,-97.551231,-66.113914
1.785e-008,-97.517715,-50.774502
1.786e-008,-97.492279,-35.397945
1.787e-008,-97.474747,-19.986427
1.788e-008,-97.464935,-4.5418615
1.789e-008,-97.462746,10.934218
1.79e-008,-97.467896,26.439781
1.791e-008,-97.480171,41.973961
1.792e-008,-97.499489,57.535328
1.793e-008,-97.525589,73.123138
1.794e-008,-97.558281,88.736832
1.795e-008,-97.597404,104.37594
1.796e-008,-97.642776,120.04034
1.797e-008,-97.694244,135.72939
1.798e-008,-97.751564,151.44389
1.799e-008,-97.814651,167.18387
1.8e-008,-97.883286,-177.0504
1.801e-008,-97.957321,-161.25775
1.802e-008,-98.036613,-145.43788
1.803e-008,-98.120972,-129.58902
1.804e-008,-98.210274,-113.71043
1.805e-008,-98.30439,-97.800659
1.806e-008,-98.403122,-81.857681
1.807e-008,-98.506355,-65.879868
1.808e-008,-98.613853,-49.865421
1.809e-008,-98.725487,-33.811905
1.81e-008,-98.84111,-17.717196
1.811e-008,-98.96048,-1.5782775
1.812e-008,-99.083351,14.606913
1.813e-008,-99.209503,30.841753
1.814e-008,-99.338661,47.128887
1.815e-008,-99.470467,63.471622
1.816e-008,-99.604584,79.873032
1.817e-008,-99.740562,96.336411
1.818e-008,-99.877953,112.86494
1.819e-008,-100.01624,129.46176
1.82e-008,-100.15471,146.13034
1.821e-008,-100.2927,162.87302
1.822e-008,-100.42946,179.69298
1.823e-008,-100.56405,-163.40813
1.824e-008,-100.69549,-146.42763
1.825e-008,-100.82272,-129.36542
1.826e-008,-100.94459,-112.22076
1.827e-008,-101.05983,-94.99456
1.828e-008,-101.16719,-77.688248
1.829e-008,-101.26525,-60.305107
1.83e-008,-101.35274,-42.849354
1.831e-008,-101.42823,-25.326895
1.832e-008,-101.49055,-7.7450719
1.833e-008,-101.53844,9.887476
1.834e-008,-101.57098,27.560673
1.835e-008,-101.58725,45.262573
1.836e-008,-101.58674,62.981571
1.837e-008,-101.56901,80.704369
1.838e-008,-101.53406,98.417664
1.839e-008,-101.48208,116.10812
1.84e-008,-101.41354,133.76289
1.841e-008,-101.3292,151.37003
1.842e-008,-101.22993,168.91792
1.843e-008,-101.1169,-173.60303
1.844e-008,-100.99142,-156.20131
1.845e-008,-100.85474,-138.88393
1.846e-008,-100.70828,-121.65653
1.847e-008,-100.55347,-104.52311
1.848e-008,-100.39169,-87.486282
1.849e-008,-100.22426,-70.547676
1.85e-008,-100.0524,-53.70776
1.851e-008,-99.877266,-36.965935
1.852e-008,-99.699944,-20.320499
1.853e-008,-99.521355,-3.769558
1.854e-008,-99.342369,12.689218
1.855e-008,-99.163704,29.059084
1.856e-008,-98.986015,45.343204
1.857e-008,-98.80986,61.545517
1.858e-008,-98.635674,77.669495
1.859e-008,-98.46389,93.719101
1.86e-008,-98.294769,109.69816
1.861e-008,-98.128616,125.61091
1.862e-008,-97.965584,141.4612
1.863e-008,-97.805862,157.25298
1.864e-008,-97.649551,172.99034
1.865e-008,-97.496765,-171.32277
1.866e-008,-97.347511,-155.68257
1.867e-008,-97.201866,-140.08508
1.868e-008,-97.059807,-124.52645
1.869e-008,-96.921379,-109.00324
1.87e-008,-96.78653,-93.511398
1.871e-008,-96.655289,-78.047714
1.872e-008,-96.527626,-62.608418
1.873e-008,-96.403549,-47.190224
1.874e-008,-96.28302,-31.789589
1.875e-008,-96.166061,-16.403448
1.876e-008,-96.052628,-1.0283555
1.877e-008,-95.942757,14.338632
1.878e-008,-95.836426,29.700422
1.879e-008,-95.733635,45.060165
1.88e-008,-95.634445,60.42049
1.881e-008,-95.538834,75.784081
1.882e-008,-95.446831,91.153496
1.883e-008,-95.358475,106.53134
1.884e-008,-95.27375,121.91978
1.885e-008,-95.192711,137.32111
1.886e-008,-95.115387,152.73749
1.887e-008,-95.041748,168.17091
1.888e-008,-94.971863,-176.37685
1.889e-008,-94.905685,-160.90408
1.89e-008,-94.843254,-145.40889
1.891e-008,-94.784531,-129.89
1.892e-008,-94.729523,-114.34586
1.893e-008,-94.678177,-98.775314
1.894e-008,-94.630463,-83.177177
1.895e-008,-94.586319,-67.55027
1.896e-008,-94.545647,-51.89378
1.897e-008,-94.508385,-36.20681
1.898e-008,-94.474419,-20.488729
1.899e-008,-94.443611,-4.7389126
1.9e-008,-94.415863,11.042967
1.901e-008,-94.390961,26.857441
1.902e-008,-94.368774,42.704285
1.903e-008,-94.349113,58.584007
1.904e-008,-94.331734,74.496178
1.905e-008,-94.316467,90.440742
1.906e-008,-94.30304,106.41707
1.907e-008,-94.291237,122.42464
1.908e-008,-94.280792,138.46288
1.909e-008,-94.271439,154.53059
1.91e-008,-94.262917,170.62683
1.911e-008,-94.254967,-173.24977
1.912e-008,-94.247299,-157.10062
1.913e-008,-94.239662,-140.9274
1.914e-008,-94.231819,-124.73199
1.915e-008,-94.22348,-108.5163
1.916e-008,-94.214447,-92.282478
1.917e-008,-94.204506,-76.033012
1.918e-008,-94.193451,-59.770187
1.919e-008,-94.181129,-43.496681
1.92e-008,-94.167381,-27.214991
1.921e-008,-94.152115,-10.928101
1.922e-008,-94.135231,5.3613057
1.923e-008,-94.116692,21.650478
1.924e-008,-94.096481,37.936481
1.925e-008,-94.074593,54.216362
1.926e-008,-94.051125,70.487564
1.927e-008,-94.026115,86.747208
1.928e-008,-93.999702,102.99286
1.929e-008,-93.972038,119.22173
1.93e-008,-93.943275,135.43172
1.931e-008,-93.913628,151.62041
1.932e-008,-93.883316,167.78575
1.933e-008,-93.85257,-176.07413
1.934e-008,-93.821632,-159.96104
1.935e-008,-93.790779,-143.87662
1.936e-008,-93.760323,-127.82209
1.937e-008,-93.730476,-111.79897
1.938e-008,-93.701591,-95.808105
1.939e-008,-93.673943,-79.850708
1.94e-008,-93.647812,-63.927422
1.941e-008,-93.623459,-48.038864
1.942e-008,-93.601219,-32.185715
1.943e-008,-93.581314,-16.368418
1.944e-008,-93.564041,-0.58733314
1.945e-008,-93.549644,15.157296
1.946e-008,-93.538361,30.865229
1.947e-008,-93.530418,46.53627
1.948e-008,-93.526047,62.170143
1.949e-008,-93.525444,77.766968
1.95e-008,-93.528778,93.32663
1.951e-008,-93.536224,108.8489
1.952e-008,-93.547951,124.33361
1.953e-008,-93.564064,139.78091
1.954e-008,-93.584724,155.1904
1.955e-008,-93.609978,170.56206
1.956e-008,-93.639915,-174.10442
1.957e-008,-93.674614,-158.8092
1.958e-008,-93.714096,-143.55261
1.959e-008,-93.758347,-128.33495
1.96e-008,-93.807365,-113.15655
1.961e-008,-93.861115,-98.017754
1.962e-008,-93.919533,-82.919342
1.963e-008,-93.982498,-67.861382
1.964e-008,-94.049911,-52.844387
1.965e-008,-94.121597,-37.869049
1.966e-008,-94.197372,-22.935797
1.967e-008,-94.277031,-8.0450344
1.968e-008,-94.360291,6.8029819
1.969e-008,-94.446877,21.60743
1.97e-008,-94.536438,36.368553
1.971e-008,-94.628632,51.08596
1.972e-008,-94.723061,65.75959
1.973e-008,-94.81929,80.389671
1.974e-008,-94.916832,94.976463
1.975e-008,-95.015205,109.52073
1.976e-008,-95.113892,124.02325
1.977e-008,-95.212311,138.48514
1.978e-008,-95.309929,152.90814
1.979e-008,-95.406166,167.29399
1.98e-008,-95.50045,-178.35507
1.981e-008,-95.592178,-164.03618
1.982e-008,-95.680809,-149.74623
1.983e-008,-95.765808,-135.48167
1.984e-008,-95.84668,-121.23885
1.985e-008,-95.922966,-107.01324
1.986e-008,-95.994255,-92.800056
1.987e-008,-96.060226,-78.594841
1.988e-008,-96.12059,-64.392159
1.989e-008,-96.175179,-50.186928
1.99e-008,-96.223862,-35.973499
1.991e-008,-96.26664,-21.746759
1.992e-008,-96.30352,-7.5016966
1.993e-008,-96.334671,6.767045
1.994e-008,-96.360306,21.0641
1.995e-008,-96.380653,35.393814
1.996e-008,-96.396111,49.760502
1.997e-008,-96.407013,64.167412
1.998e-008,-96.413818,78.61792
1.999e-008,-96.416977,93.11467
2e-008,-96.416969,107.66
END

