!CSV A.01.01
!Keysight Technologies,N5227B,US58420762,A.13.80.08
!Date: Monday, November 20, 2023 14:57:41
!Source: Standard

BEGIN CH1_DATA
Freq(Hz),S21(DB),S21(DEG)
3000000000,-53.560284,134.01857
3003000000,-53.580345,120.77955
3006000000,-53.599117,107.43716
3009000000,-53.578434,92.71685
3012000000,-53.654144,77.843544
3015000000,-53.796432,63.769646
3018000000,-53.717712,49.988255
3021000000,-53.855556,36.43774
3024000000,-53.883591,22.150156
3027000000,-53.922447,8.0932178
3030000000,-53.910343,-5.7714777
3033000000,-53.992203,-18.903065
3036000000,-53.792278,-33.619587
3039000000,-53.932831,-47.828457
3042000000,-54.020279,-61.717541
3045000000,-54.093109,-75.896202
3048000000,-54.187187,-89.011116
3051000000,-54.295517,-102.09374
3054000000,-54.088871,-114.70954
3057000000,-54.07729,-129.16714
3060000000,-53.982338,-143.70087
3063000000,-54.006805,-157.58121
3066000000,-54.02972,-172.03702
3069000000,-54.0144,175.19627
3072000000,-54.069679,161.14049
3075000000,-53.930225,147.76996
3078000000,-53.917042,134.07198
3081000000,-53.893826,119.56322
3084000000,-53.74715,105.79668
3087000000,-53.795528,91.505463
3090000000,-53.757469,77.166878
3093000000,-53.68552,63.237846
3096000000,-53.748062,49.022243
3099000000,-53.771454,35.524975
3102000000,-53.762001,21.066841
3105000000,-53.576302,7.438849
3108000000,-53.393017,-6.6407328
3111000000,-53.263214,-21.374868
3114000000,-53.535816,-36.137482
3117000000,-53.548435,-50.525639
3120000000,-53.60334,-63.280998
3123000000,-53.57309,-77.486816
3126000000,-53.425537,-91.882072
3129000000,-53.481174,-106.94479
3132000000,-53.465633,-120.31791
3135000000,-53.539665,-135.48254
3138000000,-53.729599,-149.23125
3141000000,-53.711277,-163.2518
3144000000,-53.632832,-177.04547
3147000000,-53.752209,168.73857
3150000000,-53.817398,154.83936
3153000000,-53.882519,141.27603
3156000000,-53.877888,128.12857
3159000000,-53.864449,114.5024
3162000000,-53.675083,100.93858
3165000000,-53.706425,85.75042
3168000000,-53.737061,71.663101
3171000000,-53.856598,57.528778
3174000000,-53.862007,44.193665
3177000000,-53.753136,30.431423
3180000000,-53.674355,16.846594
3183000000,-53.666962,2.1925464
3186000000,-53.665764,-11.917064
3189000000,-53.604256,-27.254646
3192000000,-53.797405,-41.324184
3195000000,-53.940975,-54.710678
3198000000,-54.036327,-68.994057
3201000000,-54.031326,-81.125786
3204000000,-53.892132,-94.944695
3207000000,-53.783913,-109.88958
3210000000,-53.718014,-123.36069
3213000000,-53.974842,-138.87213
3216000000,-54.028477,-152.2262
3219000000,-54.176506,-165.80507
3222000000,-54.333576,-178.0582
3225000000,-54.133511,169.8018
3228000000,-53.98447,156.25481
3231000000,-53.769527,141.64565
3234000000,-53.706345,127.67942
3237000000,-53.669529,113.56025
3240000000,-53.711441,99.172775
3243000000,-53.630314,84.760689
3246000000,-53.682453,70.721397
3249000000,-53.572964,57.266567
3252000000,-53.557434,43.640034
3255000000,-53.391804,29.532963
3258000000,-53.199203,14.034805
3261000000,-53.435165,-0.48988226
3264000000,-53.452641,-14.716838
3267000000,-53.417843,-28.168205
3270000000,-53.494255,-42.060352
3273000000,-53.38007,-55.80851
3276000000,-53.270851,-70.563583
3279000000,-53.364773,-85.129883
3282000000,-53.495716,-100.04319
3285000000,-53.517212,-113.9519
3288000000,-53.616753,-127.27084
3291000000,-53.662777,-140.71873
3294000000,-53.652443,-153.58459
3297000000,-53.579197,-167.95634
3300000000,-53.459148,179.14581
3303000000,-53.367321,164.11749
3306000000,-53.338566,149.38515
3309000000,-53.408051,134.98422
3312000000,-53.465778,120.23069
3315000000,-53.581837,106.85922
3318000000,-53.606441,92.962524
3321000000,-53.339924,80.291756
3324000000,-53.310093,65.592697
3327000000,-53.316544,49.975101
3330000000,-53.388466,35.130039
3333000000,-53.681259,21.772026
3336000000,-53.746956,7.2415724
3339000000,-53.962872,-6.2988744
3342000000,-53.928783,-18.875429
3345000000,-53.8186,-32.185493
3348000000,-53.884888,-46.946915
3351000000,-53.953655,-60.253342
3354000000,-54.065388,-73.114754
3357000000,-53.994923,-85.689842
3360000000,-53.980251,-99.264565
3363000000,-53.859673,-112.15289
3366000000,-53.48394,-125.69901
3369000000,-53.286758,-140.01538
3372000000,-53.189106,-155.3201
3375000000,-53.265587,-170.15247
3378000000,-53.232803,175.1519
3381000000,-53.413902,160.63126
3384000000,-53.332436,147.56737
3387000000,-53.379604,132.81502
3390000000,-53.181038,119.42765
3393000000,-53.01437,103.95476
3396000000,-53.198563,88.072334
3399000000,-53.317856,73.450294
3402000000,-53.623627,59.542263
3405000000,-53.680992,46.093266
3408000000,-53.794514,33.302658
3411000000,-53.609726,20.050936
3414000000,-53.559444,6.0505481
3417000000,-53.549675,-9.1924677
3420000000,-53.634949,-23.357313
3423000000,-53.860855,-36.873016
3426000000,-53.838139,-50.775478
3429000000,-53.841206,-63.411274
3432000000,-53.942017,-77.125122
3435000000,-54.00452,-89.588295
3438000000,-53.666786,-104.34953
3441000000,-53.732353,-117.96896
3444000000,-53.711643,-132.70253
3447000000,-53.69677,-145.96439
3450000000,-53.80022,-159.99554
3453000000,-53.909946,-172.29475
3456000000,-53.752556,175.24432
3459000000,-53.563065,160.69809
3462000000,-53.369541,145.89491
3465000000,-53.278515,130.84453
3468000000,-53.303936,116.6252
3471000000,-53.182167,101.48054
3474000000,-53.398579,87.2687
3477000000,-53.496151,73.291977
3480000000,-53.170902,59.954792
3483000000,-53.260082,45.062584
3486000000,-53.146149,30.096668
3489000000,-53.403564,16.715681
3492000000,-53.440773,2.4250009
3495000000,-53.483521,-12.252316
3498000000,-53.565975,-27.11751
3501000000,-53.604267,-39.033424
3504000000,-53.53307,-52.531017
3507000000,-53.663857,-66.709122
3510000000,-53.443905,-81.199768
3513000000,-53.481186,-95.120682
3516000000,-53.534744,-109.03761
3519000000,-53.721893,-123.3845
3522000000,-53.625889,-135.78552
3525000000,-53.659782,-149.12082
3528000000,-53.519714,-164.37288
3531000000,-53.411655,-179.43498
3534000000,-53.622147,166.67371
3537000000,-53.535484,152.98228
3540000000,-53.494869,138.31706
3543000000,-53.626915,124.08691
3546000000,-53.861698,110.54151
3549000000,-53.83532,97.014099
3552000000,-53.828709,83.186356
3555000000,-53.803875,69.184464
3558000000,-53.942123,56.012421
3561000000,-53.937939,40.990078
3564000000,-53.961273,27.708069
3567000000,-54.045151,14.715653
3570000000,-54.004711,1.8798561
3573000000,-53.87727,-10.72244
3576000000,-53.718601,-24.645872
3579000000,-53.614567,-38.895824
3582000000,-53.482922,-53.370117
3585000000,-53.479679,-68.696381
3588000000,-53.590382,-83.373871
3591000000,-53.651516,-96.12059
3594000000,-53.656643,-109.82517
3597000000,-53.503292,-124.6376
3600000000,-53.386181,-138.29973
3603000000,-53.287247,-152.60513
3606000000,-53.386742,-167.91628
3609000000,-53.535728,176.86278
3612000000,-53.624615,164.33966
3615000000,-53.756195,151.00279
3618000000,-53.620838,138.18657
3621000000,-53.556553,123.98411
3624000000,-53.591846,110.16917
3627000000,-53.43663,95.136734
3630000000,-53.467239,80.738831
3633000000,-53.57951,67.060104
3636000000,-53.677071,53.458824
3639000000,-53.673126,39.04599
3642000000,-53.557079,25.994482
3645000000,-53.379276,10.979843
3648000000,-53.315632,-3.000452
3651000000,-53.4156,-18.400923
3654000000,-53.410114,-33.679382
3657000000,-53.749699,-47.596455
3660000000,-53.927498,-60.795097
3663000000,-53.815624,-74.157944
3666000000,-54.0387,-88.310867
3669000000,-54.047443,-101.47037
3672000000,-54.012917,-115.03426
3675000000,-54.039104,-128.45706
3678000000,-54.089619,-142.60915
3681000000,-53.99419,-155.62958
3684000000,-54.051731,-169.08357
3687000000,-53.923115,177.57837
3690000000,-53.968094,164.16946
3693000000,-53.790417,150.64539
3696000000,-53.806046,136.20099
3699000000,-53.695412,122.69311
3702000000,-53.44878,109.85456
3705000000,-53.42112,95.140289
3708000000,-53.141136,80.468796
3711000000,-53.257282,64.878426
3714000000,-53.224621,49.785702
3717000000,-53.387722,35.733131
3720000000,-53.376606,21.599791
3723000000,-53.373146,9.1165934
3726000000,-53.169384,-6.0376282
3729000000,-53.173355,-21.528439
3732000000,-53.298134,-36.715603
3735000000,-53.536308,-51.71032
3738000000,-53.712971,-65.812691
3741000000,-53.933399,-78.8666
3744000000,-54.160755,-91.434616
3747000000,-53.990765,-104.33687
3750000000,-53.822235,-117.00642
3753000000,-53.804466,-131.82813
3756000000,-53.717514,-146.80782
3759000000,-53.908096,-162.08815
3762000000,-54.229942,-174.69974
3765000000,-54.423676,173.54323
3768000000,-54.314129,162.43184
3771000000,-53.89975,149.94139
3774000000,-53.410999,135.38872
3777000000,-53.358955,119.20579
3780000000,-53.36285,103.91629
3783000000,-53.611904,89.940514
3786000000,-53.761566,76.183571
3789000000,-53.779797,63.201817
3792000000,-53.690559,49.533024
3795000000,-53.325642,36.708992
3798000000,-52.948597,21.251949
3801000000,-52.985695,4.9510784
3804000000,-53.067387,-10.884285
3807000000,-53.441437,-24.929298
3810000000,-53.635269,-37.752739
3813000000,-53.681828,-50.259735
3816000000,-53.401253,-62.98476
3819000000,-53.11145,-77.799065
3822000000,-53.026894,-93.999565
3825000000,-53.152687,-109.35842
3828000000,-53.256065,-124.13464
3831000000,-53.425407,-138.50175
3834000000,-53.694218,-151.48213
3837000000,-53.802483,-164.79831
3840000000,-53.794662,-177.85692
3843000000,-53.496964,169.7065
3846000000,-53.308704,153.42586
3849000000,-53.506889,137.59128
3852000000,-53.631927,123.24359
3855000000,-53.830597,109.50956
3858000000,-53.850239,96.669075
3861000000,-53.819916,83.719162
3864000000,-53.674751,71.788277
3867000000,-53.532604,57.10516
3870000000,-53.612442,41.84198
3873000000,-53.542,26.718058
3876000000,-53.792255,11.744437
3879000000,-53.938362,-2.6306355
3882000000,-54.193394,-14.090678
3885000000,-54.324982,-26.524691
3888000000,-54.023323,-38.878265
3891000000,-53.712402,-53.731689
3894000000,-53.760178,-68.076202
3897000000,-53.852264,-83.108849
3900000000,-53.888748,-97.661369
3903000000,-54.163166,-109.84293
3906000000,-54.159039,-121.68149
3909000000,-53.827328,-134.06268
3912000000,-53.547848,-148.72652
3915000000,-53.225582,-164.05394
3918000000,-53.153545,-178.56953
3921000000,-53.266052,166.35956
3924000000,-53.11504,151.01779
3927000000,-53.287624,137.00037
3930000000,-53.357151,122.71248
3933000000,-53.268543,108.95406
3936000000,-53.061737,94.687302
3939000000,-53.094299,79.484703
3942000000,-53.056087,64.335991
3945000000,-53.316372,49.620247
3948000000,-53.504375,35.929203
3951000000,-53.45966,22.174242
3954000000,-53.466625,8.6892195
3957000000,-53.396786,-6.6280708
3960000000,-53.497505,-20.971451
3963000000,-53.70718,-35.746868
3966000000,-53.86977,-49.126789
3969000000,-54.012604,-61.971428
3972000000,-54.054092,-74.987968
3975000000,-53.987659,-89.553253
3978000000,-53.884007,-103.72301
3981000000,-53.957005,-117.89902
3984000000,-53.910816,-132.40799
3987000000,-54.03334,-146.77705
3990000000,-54.234653,-160.03853
3993000000,-54.148594,-172.90442
3996000000,-54.269104,173.948
3999000000,-54.03112,160.10846
4002000000,-54.101608,145.83356
4005000000,-54.065022,130.83981
4008000000,-54.338268,117.15987
4011000000,-54.370857,104.56957
4014000000,-54.333092,92.369446
4017000000,-54.235172,78.617912
4020000000,-53.973011,64.924385
4023000000,-53.89254,50.344086
4026000000,-53.86132,35.286022
4029000000,-53.95002,21.278215
4032000000,-54.00161,8.3673401
4035000000,-53.869774,-5.6191792
4038000000,-53.58033,-19.358656
4041000000,-53.776459,-33.791187
4044000000,-53.400749,-48.906258
4047000000,-53.563583,-63.722443
4050000000,-53.687363,-78.831543
4053000000,-53.684052,-93.567268
4056000000,-53.76123,-106.34232
4059000000,-53.738461,-121.71197
4062000000,-53.822037,-135.53749
4065000000,-53.833149,-150.97339
4068000000,-54.065132,-164.12305
4071000000,-54.118641,-178.38431
4074000000,-54.209305,168.05034
4077000000,-54.159683,155.49049
4080000000,-54.087784,141.34155
4083000000,-53.98991,128.59326
4086000000,-54.101524,113.75362
4089000000,-54.189743,98.858902
4092000000,-54.071396,84.455452
4095000000,-54.121803,70.324226
4098000000,-54.208588,56.229183
4101000000,-54.399124,42.669506
4104000000,-54.413391,28.819952
4107000000,-54.38966,14.52492
4110000000,-54.272442,0.58339632
4113000000,-54.535343,-14.248762
4116000000,-54.54071,-27.893488
4119000000,-54.602943,-40.845848
4122000000,-54.601936,-52.576782
4125000000,-54.5877,-67.401031
4128000000,-54.468708,-80.541153
4131000000,-54.502304,-94.419792
4134000000,-54.428894,-108.95255
4137000000,-54.399578,-122.97539
4140000000,-54.514904,-137.02905
4143000000,-54.495518,-150.70821
4146000000,-54.523865,-164.22575
4149000000,-54.394157,-178.96312
4152000000,-54.350006,167.3783
4155000000,-54.305283,155.22466
4158000000,-54.233425,141.16177
4161000000,-53.918049,126.13875
4164000000,-54.063038,111.8475
4167000000,-54.228706,96.346497
4170000000,-54.308968,82.999619
4173000000,-54.126595,69.718056
4176000000,-54.00127,55.65213
4179000000,-54.13765,41.592419
4182000000,-53.968502,27.287205
4185000000,-53.957367,11.299707
4188000000,-54.02179,-3.336086
4191000000,-54.129826,-16.861044
4194000000,-54.27034,-30.98155
4197000000,-54.292912,-44.310059
4200000000,-54.125435,-58.272545
4203000000,-54.146313,-72.650543
4206000000,-53.927139,-87.11039
4209000000,-54.110184,-102.26866
4212000000,-54.156094,-115.62501
4215000000,-54.283062,-130.76622
4218000000,-54.37207,-144.71219
4221000000,-54.373329,-158.37808
4224000000,-54.588509,-171.17609
4227000000,-54.618462,174.74586
4230000000,-54.629402,161.38878
4233000000,-54.644821,146.11992
4236000000,-54.675747,133.42259
4239000000,-54.742069,118.85078
4242000000,-54.760891,105.3395
4245000000,-54.76722,92.231438
4248000000,-54.907688,77.519875
4251000000,-54.581482,64.420692
4254000000,-54.56329,50.770184
4257000000,-54.517654,37.495335
4260000000,-54.650352,21.561377
4263000000,-54.597118,8.2693014
4266000000,-54.76569,-5.8093042
4269000000,-54.709251,-19.963621
4272000000,-54.501671,-32.203522
4275000000,-54.694233,-45.434933
4278000000,-54.561825,-60.643017
4281000000,-54.593983,-74.65007
4284000000,-54.585773,-88.253082
4287000000,-54.450264,-102.8772
4290000000,-54.52747,-116.80757
4293000000,-54.414021,-131.27498
4296000000,-54.620064,-144.70039
4299000000,-54.528809,-160.16632
4302000000,-54.611126,-173.51105
4305000000,-54.502861,172.51352
4308000000,-54.471813,157.14394
4311000000,-54.492058,144.15369
4314000000,-54.548923,130.7393
4317000000,-54.882679,115.47089
4320000000,-54.729694,102.26435
4323000000,-54.594055,88.253372
4326000000,-54.523235,73.44371
4329000000,-54.592514,59.253162
4332000000,-54.584526,44.753349
4335000000,-54.686562,32.544918
4338000000,-54.615078,18.693956
4341000000,-54.687447,4.3206325
4344000000,-54.42931,-9.1549206
4347000000,-54.516441,-23.576244
4350000000,-54.396999,-38.967991
4353000000,-54.488495,-53.649017
4356000000,-54.506138,-66.958969
4359000000,-54.679306,-81.613785
4362000000,-54.572121,-95.975578
4365000000,-54.488014,-110.31077
4368000000,-54.468319,-124.89317
4371000000,-54.514767,-138.73605
4374000000,-54.722416,-152.71933
4377000000,-54.793434,-166.35681
4380000000,-54.784214,179.55165
4383000000,-54.99017,164.85001
4386000000,-55.061245,150.99664
4389000000,-55.102203,137.62387
4392000000,-55.213543,124.09264
4395000000,-55.193066,111.11936
4398000000,-55.344078,98.17231
4401000000,-55.149529,84.793381
4404000000,-55.084991,70.903702
4407000000,-55.087975,57.459671
4410000000,-55.117115,43.008255
4413000000,-54.986271,29.092283
4416000000,-55.104759,15.349865
4419000000,-54.781925,2.3483884
4422000000,-54.779434,-13.552208
4425000000,-54.737747,-26.512358
4428000000,-54.621468,-41.526485
4431000000,-54.600853,-56.492718
4434000000,-54.609909,-70.788651
4437000000,-54.71862,-84.250832
4440000000,-54.676655,-98.087776
4443000000,-54.622505,-113.04102
4446000000,-54.621223,-129.88705
4449000000,-54.832363,-143.12389
4452000000,-54.832211,-156.76544
4455000000,-55.023849,-170.36798
4458000000,-55.008381,174.52547
4461000000,-55.049957,159.77464
4464000000,-55.079094,147.29337
4467000000,-55.122246,133.59534
4470000000,-55.283337,119.92904
4473000000,-55.426888,106.10038
4476000000,-55.137421,92.451294
4479000000,-55.255962,79.753166
4482000000,-55.23875,64.782509
4485000000,-55.025291,50.423176
4488000000,-55.233231,35.961159
4491000000,-55.227154,22.83827
4494000000,-55.253971,8.6619816
4497000000,-55.346119,-4.9422002
4500000000,-55.226837,-18.805109
4503000000,-55.209831,-31.843018
4506000000,-55.016586,-46.304245
4509000000,-55.130314,-61.022633
4512000000,-55.222576,-76.972237
4515000000,-55.396053,-90.922783
4518000000,-55.384937,-102.55781
4521000000,-55.379761,-116.22465
4524000000,-55.269886,-131.14061
4527000000,-55.345985,-145.38608
4530000000,-54.830601,-158.94714
4533000000,-55.320908,-173.88649
4536000000,-55.235367,169.20987
4539000000,-55.614079,156.43793
4542000000,-55.593029,144.11862
4545000000,-55.665134,131.89046
4548000000,-55.420151,118.03915
4551000000,-55.149879,103.25732
4554000000,-55.07325,88.243027
4557000000,-55.270969,73.099052
4560000000,-55.254471,59.989845
4563000000,-55.431187,45.560066
4566000000,-55.440052,32.22123
4569000000,-55.343822,17.938507
4572000000,-55.43425,3.865494
4575000000,-55.469917,-9.6088753
4578000000,-55.500607,-24.471426
4581000000,-55.393158,-40.49205
4584000000,-55.51931,-53.361031
4587000000,-55.603645,-68.124207
4590000000,-55.633202,-80.684189
4593000000,-55.646252,-94.574196
4596000000,-55.722069,-107.40627
4599000000,-55.663952,-122.19575
4602000000,-55.671036,-136.10219
4605000000,-55.661625,-150.3877
4608000000,-55.504501,-164.7964
4611000000,-55.626709,-178.75655
4614000000,-55.808956,168.6554
4617000000,-55.885353,155.3806
4620000000,-55.732067,140.67323
4623000000,-55.479801,126.47202
4626000000,-55.446964,111.147
4629000000,-55.506966,97.514572
4632000000,-55.83054,82.232803
4635000000,-55.9039,69.829308
4638000000,-55.998585,56.332047
4641000000,-55.789764,41.939499
4644000000,-55.70676,28.646856
4647000000,-55.982105,13.383711
4650000000,-55.866505,0.48624229
4653000000,-55.783989,-13.416714
4656000000,-55.924995,-25.902145
4659000000,-55.843361,-39.237022
4662000000,-55.687138,-54.380928
4665000000,-55.48999,-69.221725
4668000000,-55.632439,-83.789803
4671000000,-55.760181,-97.742477
4674000000,-55.71101,-110.38125
4677000000,-55.638157,-126.4079
4680000000,-55.642708,-139.06003
4683000000,-55.478344,-153.11713
4686000000,-55.473515,-167.37964
4689000000,-55.366058,177.2195
4692000000,-55.444458,161.51007
4695000000,-55.713017,147.12099
4698000000,-55.81078,134.60454
4701000000,-55.960201,119.05311
4704000000,-55.912899,106.57783
4707000000,-55.837074,93.156784
4710000000,-55.918373,78.191948
4713000000,-55.97089,63.907314
4716000000,-56.03891,49.569736
4719000000,-56.136696,34.395138
4722000000,-56.301003,23.285255
4725000000,-56.259407,8.5851574
4728000000,-56.256557,-3.4197121
4731000000,-56.079216,-17.086977
4734000000,-55.931202,-30.876776
4737000000,-55.949966,-45.68026
4740000000,-55.940601,-61.663391
4743000000,-56.133049,-74.807915
4746000000,-56.293957,-87.946579
4749000000,-56.141464,-100.96539
4752000000,-56.10157,-115.81361
4755000000,-56.114983,-129.93604
4758000000,-56.134907,-144.26218
4761000000,-55.83049,-158.92334
4764000000,-55.972107,-172.87099
4767000000,-56.031944,173.27734
4770000000,-56.212234,158.08858
4773000000,-56.240055,144.72984
4776000000,-56.24308,132.2867
4779000000,-56.455048,117.45724
4782000000,-56.144405,103.94652
4785000000,-56.260002,90.004684
4788000000,-56.057522,74.420303
4791000000,-56.218716,60.997116
4794000000,-56.421768,46.48502
4797000000,-56.290852,33.591011
4800000000,-56.437748,20.344584
4803000000,-56.394135,5.7398643
4806000000,-56.313988,-8.2689304
4809000000,-56.24873,-22.488304
4812000000,-56.274799,-36.494377
4815000000,-56.353081,-51.476269
4818000000,-56.332233,-63.658089
4821000000,-56.61269,-78.720535
4824000000,-56.542328,-91.48835
4827000000,-56.361076,-105.31665
4830000000,-56.40707,-120.48101
4833000000,-56.303177,-133.3761
4836000000,-56.384315,-147.11685
4839000000,-56.591579,-162.67561
4842000000,-56.543125,-175.10756
4845000000,-56.642979,171.33231
4848000000,-56.485489,156.97426
4851000000,-56.406986,144.01901
4854000000,-56.338551,129.09221
4857000000,-56.233032,115.67384
4860000000,-56.137302,99.788193
4863000000,-56.40572,85.151344
4866000000,-56.569664,72.003059
4869000000,-56.098476,58.22369
4872000000,-55.981285,43.875092
4875000000,-56.208313,28.996683
4878000000,-56.470676,16.099411
4881000000,-56.416286,1.0280915
4884000000,-56.454624,-13.709347
4887000000,-56.448036,-26.983068
4890000000,-56.562004,-41.268589
4893000000,-56.551743,-54.405804
4896000000,-56.600311,-68.75312
4899000000,-56.393269,-81.073639
4902000000,-56.400059,-97.022575
4905000000,-56.522671,-111.30608
4908000000,-56.358559,-125.65555
4911000000,-56.395828,-139.39191
4914000000,-56.574081,-157.09999
4917000000,-56.499447,-166.3602
4920000000,-56.657646,177.37767
4923000000,-56.896469,165.8354
4926000000,-56.571167,150.65602
4929000000,-56.707653,136.40704
4932000000,-56.831638,121.33335
4935000000,-56.890518,106.81342
4938000000,-56.840397,94.524452
4941000000,-57.010891,80.222771
4944000000,-56.965656,67.510536
4947000000,-57.212479,54.502052
4950000000,-57.131664,40.762074
4953000000,-57.246071,27.07518
4956000000,-56.87558,14.098254
4959000000,-57.040173,0.20376085
4962000000,-56.768951,-13.90054
4965000000,-56.760418,-28.790184
4968000000,-56.994938,-41.592667
4971000000,-57.146259,-56.312489
4974000000,-56.888142,-68.309631
4977000000,-56.663631,-81.866943
4980000000,-56.334484,-97.157768
4983000000,-56.265007,-113.71872
4986000000,-56.419193,-128.09142
4989000000,-56.742039,-142.64224
4992000000,-56.628567,-155.27359
4995000000,-56.621918,-168.2563
4998000000,-56.601574,177.84369
5001000000,-56.362766,164.12401
5004000000,-56.438053,149.77519
5007000000,-56.419079,133.40309
5010000000,-56.452297,118.77594
5013000000,-56.857716,102.82066
5016000000,-56.880924,92.436424
5019000000,-56.813675,76.551598
5022000000,-56.983475,64.492157
5025000000,-56.515305,52.790524
5028000000,-56.541481,36.039867
5031000000,-56.773529,21.518099
5034000000,-56.829288,8.9884996
5037000000,-56.669106,-5.2030973
5040000000,-56.60696,-18.117689
5043000000,-56.667229,-33.542007
5046000000,-56.620312,-46.742062
5049000000,-56.272812,-60.764286
5052000000,-56.591946,-76.98838
5055000000,-56.569618,-91.434982
5058000000,-56.460686,-106.17091
5061000000,-57.114506,-119.31462
5064000000,-56.843826,-134.40987
5067000000,-56.643696,-147.54524
5070000000,-56.77243,-159.56938
5073000000,-56.537193,-176.33363
5076000000,-56.774475,169.70154
5079000000,-57.013451,156.23338
5082000000,-57.065029,142.95871
5085000000,-57.106998,128.13208
5088000000,-57.222645,117.08332
5091000000,-57.05407,102.09447
5094000000,-57.118301,89.519196
5097000000,-56.912823,72.698639
5100000000,-56.8978,59.868828
5103000000,-56.831738,45.320908
5106000000,-56.841228,31.140429
5109000000,-57.045513,17.680882
5112000000,-56.897308,3.6503601
5115000000,-56.957989,-8.713294
5118000000,-56.837482,-23.545549
5121000000,-56.786098,-39.012657
5124000000,-56.617825,-54.227955
5127000000,-56.969879,-66.3172
5130000000,-57.004711,-80.843025
5133000000,-57.095459,-95.046135
5136000000,-56.784019,-108.48934
5139000000,-57.060257,-123.86008
5142000000,-56.844673,-137.54771
5145000000,-57.061893,-150.05952
5148000000,-57.261463,-166.44022
5151000000,-57.234138,179.82494
5154000000,-57.317291,168.36594
5157000000,-57.042297,154.03923
5160000000,-57.014854,141.7578
5163000000,-56.865055,126.75239
5166000000,-56.766159,111.37275
5169000000,-56.559307,97.481445
5172000000,-56.990059,81.524956
5175000000,-56.929062,68.582031
5178000000,-57.113972,55.726784
5181000000,-57.113209,40.669189
5184000000,-56.738895,26.270767
5187000000,-56.869858,13.741144
5190000000,-57.135967,-1.9793549
5193000000,-56.925388,-16.806814
5196000000,-57.348324,-30.699173
5199000000,-57.347679,-44.791309
5202000000,-57.322735,-57.001411
5205000000,-57.152279,-72.126495
5208000000,-57.432148,-83.770454
5211000000,-57.220703,-99.721153
5214000000,-57.343517,-112.93186
5217000000,-57.330288,-128.19875
5220000000,-57.448284,-142.89897
5223000000,-57.020481,-153.63411
5226000000,-57.187862,-167.92348
5229000000,-57.362049,177.26555
5232000000,-57.369102,164.28693
5235000000,-57.041908,149.22433
5238000000,-57.141582,134.16518
5241000000,-57.124569,122.94368
5244000000,-57.268574,106.75285
5247000000,-57.048908,92.66713
5250000000,-56.975555,78.585175
5253000000,-57.355854,63.908566
5256000000,-57.283775,49.856564
5259000000,-57.134502,35.904579
5262000000,-57.209972,22.644442
5265000000,-57.170853,8.1490602
5268000000,-57.185173,-5.117456
5271000000,-57.391636,-21.92568
5274000000,-57.639877,-34.75539
5277000000,-57.58102,-48.501148
5280000000,-58.196373,-60.216923
5283000000,-57.799175,-74.302818
5286000000,-57.887283,-87.184372
5289000000,-57.949921,-102.40628
5292000000,-57.53989,-117.60097
5295000000,-57.804562,-132.10399
5298000000,-57.826656,-144.45027
5301000000,-57.709755,-155.40497
5304000000,-58.0611,-169.92316
5307000000,-57.517117,175.87372
5310000000,-57.558235,162.4704
5313000000,-57.360722,148.07985
5316000000,-57.253147,132.10789
5319000000,-57.623901,117.38972
5322000000,-57.703499,103.34763
5325000000,-57.616264,90.34964
5328000000,-57.501976,76.62207
5331000000,-57.51228,63.669132
5334000000,-57.644627,48.425972
5337000000,-57.468803,32.892509
5340000000,-57.530861,19.848192
5343000000,-57.303131,6.3429122
5346000000,-57.545952,-5.3932786
5349000000,-57.47023,-19.050245
5352000000,-57.821663,-35.23399
5355000000,-57.385395,-47.982121
5358000000,-57.182877,-62.225594
5361000000,-57.23074,-78.508034
5364000000,-57.330101,-91.309311
5367000000,-57.558632,-107.23122
5370000000,-57.557575,-121.85671
5373000000,-57.178776,-134.01958
5376000000,-57.364681,-145.6911
5379000000,-57.552345,-164.61371
5382000000,-57.081463,-177.58147
5385000000,-57.416553,169.23035
5388000000,-57.431057,153.99005
5391000000,-57.695728,140.69933
5394000000,-57.360928,128.43712
5397000000,-57.904705,115.09801
5400000000,-57.440571,100.4624
5403000000,-57.459938,84.227142
5406000000,-57.62355,68.452759
5409000000,-57.637096,57.785404
5412000000,-57.99313,42.950165
5415000000,-57.858093,29.153921
5418000000,-58.126949,16.389292
5421000000,-57.791168,3.3787727
5424000000,-57.866402,-10.139792
5427000000,-58.032532,-23.785723
5430000000,-57.711967,-39.377846
5433000000,-57.874638,-51.376209
5436000000,-57.706406,-67.989548
5439000000,-58.016171,-80.386162
5442000000,-58.060585,-92.734772
5445000000,-57.950459,-109.54121
5448000000,-57.915047,-123.81707
5451000000,-57.702717,-136.03497
5454000000,-57.902668,-149.60963
5457000000,-57.696884,-165.49651
5460000000,-57.631248,179.69206
5463000000,-57.590641,168.7722
5466000000,-58.204098,154.22794
5469000000,-57.784828,142.01801
5472000000,-57.760155,130.33981
5475000000,-57.522038,111.86251
5478000000,-57.158752,98.137001
5481000000,-57.100872,84.65551
5484000000,-57.400612,67.52047
5487000000,-57.749454,53.259132
5490000000,-57.998837,39.159748
5493000000,-57.881012,27.687344
5496000000,-57.475437,15.096685
5499000000,-57.311646,-3.001025
5502000000,-57.660164,-15.633469
5505000000,-57.878799,-30.671736
5508000000,-58.027397,-46.251472
5511000000,-57.850983,-57.202374
5514000000,-58.2239,-71.264854
5517000000,-57.876133,-85.3862
5520000000,-58.002941,-101.7954
5523000000,-57.892002,-114.00632
5526000000,-58.042648,-128.53577
5529000000,-57.654358,-143.1613
5532000000,-57.915833,-155.04378
5535000000,-58.130764,-168.87451
5538000000,-58.224751,175.67903
5541000000,-58.090485,162.6514
5544000000,-57.947529,151.40965
5547000000,-57.893234,135.03038
5550000000,-57.660408,120.03316
5553000000,-58.288174,105.76096
5556000000,-57.988674,93.457901
5559000000,-58.278858,78.066666
5562000000,-58.235764,64.671906
5565000000,-57.917397,50.311161
5568000000,-58.247589,37.319569
5571000000,-58.181492,25.732677
5574000000,-58.29105,9.1084042
5577000000,-57.686028,-4.6965284
5580000000,-57.918022,-16.951448
5583000000,-58.111176,-32.523785
5586000000,-58.451893,-48.337872
5589000000,-58.242069,-59.119892
5592000000,-58.120026,-73.200104
5595000000,-58.149746,-86.260796
5598000000,-57.918022,-100.75947
5601000000,-57.358788,-117.67245
5604000000,-57.854973,-133.30678
5607000000,-57.877865,-145.26842
5610000000,-58.325825,-159.96149
5613000000,-58.035862,-172.28336
5616000000,-58.217144,174.79581
5619000000,-57.750992,159.43446
5622000000,-58.100628,144.08737
5625000000,-58.032608,131.42108
5628000000,-58.2309,113.9705
5631000000,-58.022697,102.32628
5634000000,-58.364594,86.740738
5637000000,-58.172413,74.205048
5640000000,-58.224537,61.713226
5643000000,-58.28698,47.015823
5646000000,-58.268299,32.025127
5649000000,-58.573666,16.834711
5652000000,-58.458508,3.9927399
5655000000,-58.718037,-11.666023
5658000000,-58.831192,-23.652775
5661000000,-58.825447,-35.841793
5664000000,-58.472881,-48.570103
5667000000,-58.788769,-62.759781
5670000000,-58.460506,-78.193138
5673000000,-58.7836,-92.59761
5676000000,-58.927509,-104.6462
5679000000,-58.941322,-118.26628
5682000000,-58.923248,-129.88414
5685000000,-58.866001,-145.63741
5688000000,-58.540367,-157.87758
5691000000,-58.561626,-175.38428
5694000000,-58.691723,171.09023
5697000000,-58.813576,160.41565
5700000000,-58.922169,144.36143
5703000000,-58.520653,131.07085
5706000000,-58.894367,115.43786
5709000000,-58.749241,101.99978
5712000000,-58.314423,87.541245
5715000000,-58.849087,74.037079
5718000000,-58.19315,62.861088
5721000000,-58.465816,46.420399
5724000000,-58.119453,32.861542
5727000000,-58.684097,19.593063
5730000000,-58.354939,0.98164833
5733000000,-58.489147,-10.494422
5736000000,-58.778309,-21.733797
5739000000,-58.209843,-38.827721
5742000000,-58.544964,-51.124836
5745000000,-58.583138,-68.060913
5748000000,-58.768787,-79.922974
5751000000,-58.345669,-95.009438
5754000000,-58.341042,-109.16428
5757000000,-58.613964,-125.49312
5760000000,-59.139503,-138.98874
5763000000,-58.74366,-153.14018
5766000000,-58.960808,-163.53603
5769000000,-59.284817,-178.20155
5772000000,-58.876614,168.62561
5775000000,-59.017338,152.32727
5778000000,-59.31218,141.0569
5781000000,-59.396984,124.68744
5784000000,-59.383774,114.15876
5787000000,-59.200089,100.20945
5790000000,-59.153728,84.767708
5793000000,-59.355625,72.752502
5796000000,-59.161812,58.89748
5799000000,-59.26049,45.175301
5802000000,-59.325405,31.020851
5805000000,-59.329754,17.459999
5808000000,-59.272377,4.5810227
5811000000,-59.087627,-8.3248072
5814000000,-59.084557,-25.949137
5817000000,-59.542736,-38.005093
5820000000,-59.533508,-51.163399
5823000000,-59.23608,-64.263451
5826000000,-59.03381,-79.125931
5829000000,-58.645905,-91.78878
5832000000,-59.022762,-108.47695
5835000000,-59.006886,-119.98985
5838000000,-59.041294,-132.91626
5841000000,-58.804897,-146.02507
5844000000,-58.706417,-162.3597
5847000000,-58.842102,179.95801
5850000000,-58.945415,166.68098
5853000000,-59.046589,154.80692
5856000000,-58.965607,139.95175
5859000000,-58.505466,126.52978
5862000000,-58.902576,111.06516
5865000000,-59.18079,96.663002
5868000000,-59.164974,84.571785
5871000000,-59.765209,68.957779
5874000000,-59.077976,58.698463
5877000000,-58.837776,42.610119
5880000000,-58.912216,27.127556
5883000000,-59.497055,13.526837
5886000000,-59.75304,0.033538237
5889000000,-59.632324,-11.50141
5892000000,-59.227394,-26.258183
5895000000,-59.436161,-39.201424
5898000000,-59.264568,-56.065628
5901000000,-59.341244,-69.550934
5904000000,-59.712147,-80.475182
5907000000,-59.428368,-94.097153
5910000000,-59.369915,-106.87729
5913000000,-59.50238,-123.99938
5916000000,-59.148888,-138.57564
5919000000,-59.430389,-150.43796
5922000000,-59.941402,-162.14586
5925000000,-59.377899,-177.45631
5928000000,-59.746918,166.45177
5931000000,-59.71051,156.77597
5934000000,-59.452465,140.43962
5937000000,-60.024921,129.53162
5940000000,-59.394592,114.40992
5943000000,-59.240635,101.98591
5946000000,-59.660599,88.997902
5949000000,-59.436996,74.011887
5952000000,-59.406914,62.685654
5955000000,-59.101818,43.815285
5958000000,-59.026154,29.965113
5961000000,-59.195229,16.051432
5964000000,-59.617931,2.7375045
5967000000,-59.030472,-9.5463285
5970000000,-59.063629,-27.323357
5973000000,-59.364101,-37.616951
5976000000,-59.059555,-53.735569
5979000000,-58.886539,-67.817886
5982000000,-58.776253,-80.605782
5985000000,-59.680161,-96.114693
5988000000,-59.447506,-107.77396
5991000000,-59.50444,-121.50648
5994000000,-58.903938,-131.23573
5997000000,-59.385719,-151.47124
6000000000,-58.803093,-162.23152
END

