!CSV A.01.01
!Keysight Technologies,N5227B,US58420762,A.13.80.08
!Date: Monday, November 20, 2023 14:35:52
!Source: Standard

BEGIN CH1_DATA
Freq(Hz),S21(DB),S21(DEG)
3000000000,-53.632309,-175.10605
3003000000,-53.502048,168.929
3006000000,-53.655529,152.24942
3009000000,-53.609913,136.14699
3012000000,-53.606773,120.60133
3015000000,-53.639317,103.46362
3018000000,-53.526913,87.423637
3021000000,-53.425537,71.217339
3024000000,-53.370472,55.225533
3027000000,-53.226334,38.68082
3030000000,-53.329727,21.988241
3033000000,-53.195274,5.3615613
3036000000,-53.139626,-11.584517
3039000000,-53.336128,-28.511805
3042000000,-53.276363,-45.151272
3045000000,-53.458385,-62.114159
3048000000,-53.59428,-77.620605
3051000000,-53.633297,-93.974113
3054000000,-53.707497,-109.81333
3057000000,-53.770126,-127.11935
3060000000,-53.875603,-142.51878
3063000000,-53.980953,-158.20576
3066000000,-54.017975,-173.50708
3069000000,-54.096687,171.19
3072000000,-54.140446,156.40634
3075000000,-53.986412,140.66119
3078000000,-53.914009,124.59523
3081000000,-53.847919,108.25922
3084000000,-53.844002,91.483505
3087000000,-53.960999,75.645912
3090000000,-53.919266,60.162254
3093000000,-53.937515,44.146988
3096000000,-53.985554,29.037157
3099000000,-53.733696,13.604002
3102000000,-53.500713,-3.1040356
3105000000,-53.49118,-19.935204
3108000000,-53.382877,-37.079823
3111000000,-53.596218,-53.528564
3114000000,-53.671856,-69.824226
3117000000,-53.643513,-86.238136
3120000000,-53.645557,-100.95139
3123000000,-53.58593,-117.07922
3126000000,-53.434139,-133.56389
3129000000,-53.519135,-150.41914
3132000000,-53.626789,-166.93129
3135000000,-53.614193,177.13034
3138000000,-53.689587,161.46086
3141000000,-53.717297,146.85243
3144000000,-53.670437,130.9032
3147000000,-53.559742,114.85152
3150000000,-53.453041,98.140709
3153000000,-53.436722,81.941483
3156000000,-53.365852,64.962029
3159000000,-53.414673,48.224476
3162000000,-53.473434,33.016327
3165000000,-53.473804,17.013885
3168000000,-53.347404,0.79485869
3171000000,-53.379269,-15.336519
3174000000,-53.410847,-32.812206
3177000000,-53.487652,-49.853252
3180000000,-53.464745,-65.976608
3183000000,-53.685516,-81.094902
3186000000,-53.652283,-97.206215
3189000000,-53.770958,-112.55975
3192000000,-53.63192,-129.15677
3195000000,-53.710365,-144.52098
3198000000,-53.743015,-159.93118
3201000000,-53.681335,-176.38919
3204000000,-53.625656,168.25755
3207000000,-53.488365,152.46765
3210000000,-53.490715,136.70474
3213000000,-53.456711,120.04085
3216000000,-53.475468,102.9864
3219000000,-53.586071,86.640144
3222000000,-53.553268,71.898788
3225000000,-53.509583,55.282398
3228000000,-53.582027,39.545837
3231000000,-53.474003,23.840193
3234000000,-53.438469,7.4825535
3237000000,-53.405384,-9.2569952
3240000000,-53.319416,-25.456511
3243000000,-53.471008,-42.165977
3246000000,-53.54034,-57.694397
3249000000,-53.560211,-73.982643
3252000000,-53.601902,-89.562462
3255000000,-53.425659,-105.31663
3258000000,-53.482265,-122.3213
3261000000,-53.645187,-137.8387
3264000000,-53.71814,-153.43399
3267000000,-53.688332,-169.45296
3270000000,-53.450432,176.23444
3273000000,-53.528301,158.49371
3276000000,-53.358986,143.28339
3279000000,-53.402851,126.48539
3282000000,-53.429138,110.30875
3285000000,-53.454918,95.21843
3288000000,-53.377968,79.10791
3291000000,-53.194927,62.997807
3294000000,-53.107033,46.80043
3297000000,-53.085064,30.31296
3300000000,-53.130638,13.15056
3303000000,-53.130722,-2.8200409
3306000000,-53.243534,-18.58017
3309000000,-53.137917,-34.604324
3312000000,-53.050991,-50.10535
3315000000,-52.967636,-66.753136
3318000000,-52.901905,-84.264397
3321000000,-52.93618,-99.84269
3324000000,-52.863937,-116.31292
3327000000,-52.982018,-133.1228
3330000000,-52.961521,-149.45953
3333000000,-53.011723,-165.91631
3336000000,-52.919739,177.87036
3339000000,-53.011463,161.88792
3342000000,-53.025047,145.72505
3345000000,-53.069363,128.81958
3348000000,-52.999264,111.89469
3351000000,-53.152073,95.316025
3354000000,-53.526302,79.713493
3357000000,-53.557224,63.807285
3360000000,-53.672398,48.826424
3363000000,-53.77737,33.506329
3366000000,-53.738911,18.590015
3369000000,-53.501755,2.3461058
3372000000,-53.634979,-14.031268
3375000000,-53.635445,-29.814831
3378000000,-53.631351,-44.422882
3381000000,-53.590229,-59.723255
3384000000,-53.385685,-75.377579
3387000000,-53.173088,-90.726929
3390000000,-53.088734,-107.64413
3393000000,-53.004456,-124.07874
3396000000,-53.097744,-140.86813
3399000000,-52.918964,-157.16534
3402000000,-52.952637,-174.10649
3405000000,-52.78894,169.67288
3408000000,-52.980896,153.04491
3411000000,-52.908279,137.12289
3414000000,-52.832783,120.7428
3417000000,-52.715469,104.21249
3420000000,-52.847446,86.370796
3423000000,-52.899044,70.79129
3426000000,-52.92841,53.967785
3429000000,-53.034595,37.207397
3432000000,-53.146473,22.031885
3435000000,-53.231865,5.2083335
3438000000,-53.134064,-9.6655493
3441000000,-53.233761,-25.142559
3444000000,-53.274918,-42.352066
3447000000,-53.369461,-58.249596
3450000000,-53.446861,-74.802689
3453000000,-53.568443,-89.851433
3456000000,-53.664799,-104.83692
3459000000,-53.632622,-119.67639
3462000000,-53.558987,-135.76534
3465000000,-53.506107,-150.84218
3468000000,-53.334595,-167.10239
3471000000,-53.137703,176.90237
3474000000,-53.14476,160.11559
3477000000,-53.20295,143.636
3480000000,-53.192875,127.46226
3483000000,-53.116364,111.16837
3486000000,-53.126961,95.359779
3489000000,-53.1287,79.805458
3492000000,-52.920895,63.813736
3495000000,-52.900707,46.739407
3498000000,-52.914772,29.292866
3501000000,-52.998951,13.310848
3504000000,-53.026371,-3.4394386
3507000000,-53.103779,-18.170977
3510000000,-53.163624,-34.529255
3513000000,-53.035995,-49.286915
3516000000,-52.977871,-67.255371
3519000000,-52.965397,-82.008965
3522000000,-52.989586,-99.207001
3525000000,-52.953163,-114.83241
3528000000,-52.839798,-131.00203
3531000000,-52.831791,-147.70364
3534000000,-53.025051,-164.49332
3537000000,-53.041241,-179.30743
3540000000,-52.940033,163.90536
3543000000,-52.76009,148.38078
3546000000,-52.65498,130.4227
3549000000,-52.606888,113.21655
3552000000,-52.822971,95.435684
3555000000,-53.125965,79.442406
3558000000,-53.327045,64.513527
3561000000,-53.273792,48.293354
3564000000,-53.261494,32.325497
3567000000,-53.358334,17.39254
3570000000,-53.260609,0.36570063
3573000000,-53.37608,-15.844367
3576000000,-53.584122,-32.428497
3579000000,-53.691425,-47.564148
3582000000,-53.83532,-62.222935
3585000000,-53.740089,-77.491867
3588000000,-53.718334,-92.603195
3591000000,-53.627796,-107.6179
3594000000,-53.497753,-123.48654
3597000000,-53.219715,-139.44098
3600000000,-53.274803,-155.65065
3603000000,-53.332088,-171.90625
3606000000,-53.240288,171.86302
3609000000,-53.311958,156.67577
3612000000,-53.122807,140.34555
3615000000,-53.034695,123.82262
3618000000,-52.913055,106.79845
3621000000,-52.784809,90.22448
3624000000,-52.80682,73.269356
3627000000,-52.977722,55.802597
3630000000,-53.071377,39.650352
3633000000,-53.136593,22.513693
3636000000,-53.275578,8.5340624
3639000000,-53.325459,-6.9532161
3642000000,-53.113224,-22.872263
3645000000,-53.156784,-39.371494
3648000000,-53.104965,-56.245052
3651000000,-53.269417,-72.357628
3654000000,-53.368721,-87.854904
3657000000,-53.362846,-102.59326
3660000000,-53.29554,-117.80118
3663000000,-53.173004,-133.69318
3666000000,-53.061283,-150.47722
3669000000,-53.045376,-167.03896
3672000000,-52.92194,176.71529
3675000000,-52.901081,158.86598
3678000000,-52.921379,142.38383
3681000000,-52.971046,126.88566
3684000000,-53.053036,109.42552
3687000000,-53.078133,93.814339
3690000000,-53.00132,77.165176
3693000000,-53.176403,60.645149
3696000000,-53.287086,44.712807
3699000000,-53.46571,28.253878
3702000000,-53.732506,12.784321
3705000000,-53.712479,-2.3241267
3708000000,-53.712742,-17.643349
3711000000,-53.713051,-31.813137
3714000000,-53.509254,-46.816349
3717000000,-53.481766,-63.194912
3720000000,-53.377819,-80.173004
3723000000,-53.329128,-96.633385
3726000000,-53.565334,-112.06306
3729000000,-53.434937,-127.63352
3732000000,-53.336338,-142.61821
3735000000,-53.150948,-158.63626
3738000000,-53.047626,-175.40179
3741000000,-52.989548,168.16132
3744000000,-52.963161,151.14386
3747000000,-52.890221,134.80025
3750000000,-52.75835,118.98193
3753000000,-52.610142,101.82823
3756000000,-52.651451,84.282814
3759000000,-52.665527,66.975426
3762000000,-52.872726,50.003422
3765000000,-53.016579,34.228191
3768000000,-53.053707,17.593039
3771000000,-53.287045,2.1055989
3774000000,-53.426132,-13.588548
3777000000,-53.433434,-29.418758
3780000000,-53.429871,-45.560791
3783000000,-53.482128,-60.058659
3786000000,-53.545738,-76.166588
3789000000,-53.599411,-91.266365
3792000000,-53.57217,-106.94887
3795000000,-53.475433,-121.86024
3798000000,-53.604393,-137.71124
3801000000,-53.315685,-152.86078
3804000000,-53.249363,-168.11745
3807000000,-53.120022,175.57098
3810000000,-53.024502,159.24954
3813000000,-52.822445,142.90736
3816000000,-52.846058,127.02968
3819000000,-52.776775,109.17246
3822000000,-52.685837,93.903542
3825000000,-52.745533,75.95034
3828000000,-52.675087,60.742149
3831000000,-52.601753,43.468731
3834000000,-52.53817,26.678968
3837000000,-52.656528,10.21279
3840000000,-52.678268,-7.2022367
3843000000,-52.764126,-22.58522
3846000000,-52.805569,-39.432156
3849000000,-52.82325,-55.220444
3852000000,-52.951591,-71.920235
3855000000,-52.960068,-87.012268
3858000000,-52.83094,-103.12565
3861000000,-52.859131,-118.90152
3864000000,-52.82056,-136.08385
3867000000,-52.994724,-153.19168
3870000000,-53.092575,-168.92783
3873000000,-53.204212,175.65794
3876000000,-53.104656,161.09471
3879000000,-53.098495,144.85358
3882000000,-52.896236,129.24527
3885000000,-52.764595,113.08595
3888000000,-52.732147,96.340462
3891000000,-52.724236,78.022049
3894000000,-52.909988,61.834576
3897000000,-52.938183,45.723473
3900000000,-53.154449,29.144329
3903000000,-53.007847,13.991291
3906000000,-53.086048,-0.94348949
3909000000,-52.974632,-18.214855
3912000000,-52.877327,-34.541492
3915000000,-52.989384,-51.098263
3918000000,-53.127407,-67.084709
3921000000,-53.24049,-83.284821
3924000000,-53.232124,-98.495399
3927000000,-53.276905,-114.31089
3930000000,-53.187054,-129.1655
3933000000,-53.105061,-144.67856
3936000000,-52.970394,-161.35249
3939000000,-52.847363,-178.51613
3942000000,-52.886761,165.80276
3945000000,-52.89888,148.69791
3948000000,-53.010296,132.91623
3951000000,-53.041317,117.11885
3954000000,-52.82111,101.318
3957000000,-52.75441,85.121613
3960000000,-52.620514,68.485115
3963000000,-52.663555,51.380112
3966000000,-52.605618,33.771454
3969000000,-52.772453,17.792238
3972000000,-52.934776,1.2222308
3975000000,-52.982807,-14.119225
3978000000,-52.906517,-29.740318
3981000000,-52.784492,-47.092567
3984000000,-52.824524,-63.235149
3987000000,-52.960789,-79.369194
3990000000,-53.053036,-95.619896
3993000000,-53.194065,-111.16569
3996000000,-53.231194,-127.26304
3999000000,-53.28331,-142.71117
4002000000,-53.225487,-160.10324
4005000000,-53.303688,-175.33524
4008000000,-53.196507,169.22153
4011000000,-53.233788,152.72226
4014000000,-53.196163,137.51213
4017000000,-53.245216,120.73129
4020000000,-53.208271,104.67318
4023000000,-53.320736,87.977997
4026000000,-53.146576,71.836685
4029000000,-53.302311,55.690823
4032000000,-53.285263,39.387409
4035000000,-53.233116,24.058239
4038000000,-53.129501,7.6279492
4041000000,-53.130032,-8.2993755
4044000000,-53.085667,-23.730886
4047000000,-53.150841,-41.486164
4050000000,-53.260826,-57.358173
4053000000,-53.325291,-73.142273
4056000000,-53.49342,-88.757111
4059000000,-53.376331,-104.52068
4062000000,-53.370537,-120.3856
4065000000,-53.322231,-135.41353
4068000000,-53.156128,-151.90941
4071000000,-53.177086,-169.19464
4074000000,-53.18877,173.94356
4077000000,-53.243881,158.32913
4080000000,-53.313122,141.72375
4083000000,-53.103916,126.57839
4086000000,-52.981468,110.25347
4089000000,-52.885544,93.823524
4092000000,-52.952747,76.546799
4095000000,-52.874496,60.732685
4098000000,-53.058765,43.025127
4101000000,-53.223637,27.02943
4104000000,-53.326054,9.6858597
4107000000,-53.535412,-5.3469782
4110000000,-53.488087,-19.781237
4113000000,-53.478626,-36.016876
4116000000,-53.441067,-51.730488
4119000000,-53.398983,-68.252296
4122000000,-53.33461,-84.894196
4125000000,-53.206505,-101.60175
4128000000,-53.450863,-117.75103
4131000000,-53.646591,-133.30545
4134000000,-53.684494,-148.70631
4137000000,-53.678833,-163.66025
4140000000,-53.567669,-179.15384
4143000000,-53.368256,164.38226
4146000000,-53.282314,146.76488
4149000000,-53.174694,130.18904
4152000000,-53.637604,113.89099
4155000000,-53.666893,98.522377
4158000000,-53.506695,82.95105
4161000000,-53.582157,66.739746
4164000000,-53.55793,51.500454
4167000000,-53.507198,35.876274
4170000000,-53.467709,19.368496
4173000000,-53.403645,2.2509141
4176000000,-53.493996,-13.337524
4179000000,-53.421761,-29.599878
4182000000,-53.489117,-45.533211
4185000000,-53.47525,-61.447086
4188000000,-53.478607,-76.88797
4191000000,-53.349304,-92.366837
4194000000,-53.098038,-109.03969
4197000000,-53.152344,-126.04272
4200000000,-53.077492,-142.96802
4203000000,-53.235809,-159.52119
4206000000,-53.290874,-175.58929
4209000000,-53.264626,168.70961
4212000000,-53.109432,151.88741
4215000000,-53.119587,135.41451
4218000000,-53.149323,120.01309
4221000000,-53.132881,102.77975
4224000000,-53.178638,86.150375
4227000000,-53.179779,69.611092
4230000000,-53.443756,52.400215
4233000000,-53.518745,36.856171
4236000000,-53.506134,20.863979
4239000000,-53.517223,4.9054685
4242000000,-53.677704,-10.625295
4245000000,-53.580658,-26.962479
4248000000,-53.741211,-42.638046
4251000000,-53.649647,-59.112099
4254000000,-53.658482,-75.21904
4257000000,-53.781239,-90.598167
4260000000,-53.737247,-106.63169
4263000000,-53.596779,-122.37407
4266000000,-53.604813,-137.66586
4269000000,-53.575928,-154.39857
4272000000,-53.608246,-170.75156
4275000000,-53.692043,172.88429
4278000000,-53.656498,156.87701
4281000000,-53.654911,140.67809
4284000000,-53.630276,125.23425
4287000000,-53.752728,109.38043
4290000000,-53.654259,92.990303
4293000000,-53.760376,77.046791
4296000000,-53.684902,61.905224
4299000000,-53.587101,45.585617
4302000000,-53.631443,28.902254
4305000000,-53.591766,12.005971
4308000000,-53.510338,-4.3136058
4311000000,-53.748112,-20.508768
4314000000,-53.809879,-35.873158
4317000000,-53.680916,-52.065189
4320000000,-53.703533,-68.399643
4323000000,-53.505829,-84.738083
4326000000,-53.630238,-100.02267
4329000000,-53.627029,-115.92776
4332000000,-53.629009,-131.37901
4335000000,-53.524437,-147.87695
4338000000,-53.463516,-163.65575
4341000000,-53.539181,179.18082
4344000000,-53.372078,163.16565
4347000000,-53.382801,146.5977
4350000000,-53.354469,131.67358
4353000000,-53.281113,114.27798
4356000000,-53.258202,98.287506
4359000000,-53.257973,80.350327
4362000000,-53.367867,64.185394
4365000000,-53.300804,46.729954
4368000000,-53.466709,30.846699
4371000000,-53.577011,14.706692
4374000000,-53.493271,-1.1569316
4377000000,-53.40976,-17.816582
4380000000,-53.673744,-33.99012
4383000000,-53.625671,-49.688129
4386000000,-53.519283,-67.017998
4389000000,-53.848946,-81.881477
4392000000,-53.999638,-97.856133
4395000000,-53.827976,-114.16178
4398000000,-54.054852,-129.8597
4401000000,-53.908558,-145.77036
4404000000,-54.019806,-161.07941
4407000000,-53.924934,-176.90457
4410000000,-53.860935,167.74379
4413000000,-53.803169,151.7989
4416000000,-53.599148,134.29407
4419000000,-53.806137,119.07226
4422000000,-53.718277,102.37584
4425000000,-53.735508,85.657547
4428000000,-53.75589,69.5448
4431000000,-53.743076,53.04929
4434000000,-53.560585,36.161633
4437000000,-53.729408,19.959169
4440000000,-53.895863,4.297894
4443000000,-53.990433,-11.402897
4446000000,-53.806393,-27.092714
4449000000,-53.790302,-43.011044
4452000000,-54.018482,-59.806969
4455000000,-53.857288,-75.939346
4458000000,-53.961929,-92.61235
4461000000,-53.972248,-107.45901
4464000000,-53.953449,-123.47849
4467000000,-54.052479,-138.64355
4470000000,-53.965843,-154.8905
4473000000,-53.771748,-171.52719
4476000000,-53.611649,172.73912
4479000000,-53.815845,155.4034
4482000000,-53.887695,140.44296
4485000000,-53.841331,124.6743
4488000000,-53.626556,107.67587
4491000000,-53.570713,90.575554
4494000000,-53.583557,74.686104
4497000000,-53.815769,58.767776
4500000000,-53.57761,42.661942
4503000000,-53.787643,26.315598
4506000000,-53.636127,10.511869
4509000000,-53.550011,-6.9927654
4512000000,-53.498634,-23.484018
4515000000,-53.49231,-39.451981
4518000000,-53.819065,-56.571461
4521000000,-53.780251,-72.585045
4524000000,-53.739433,-87.991592
4527000000,-53.775776,-104.12353
4530000000,-54.030197,-121.3757
4533000000,-53.930595,-137.25926
4536000000,-53.986057,-153.58823
4539000000,-53.917233,-169.21675
4542000000,-53.939804,174.40498
4545000000,-54.123341,159.01436
4548000000,-53.971474,143.83287
4551000000,-54.091415,127.95417
4554000000,-53.973793,111.26625
4557000000,-53.994995,94.811005
4560000000,-53.886177,78.731117
4563000000,-54.062588,62.271564
4566000000,-54.030624,47.014385
4569000000,-53.998787,31.496174
4572000000,-54.000084,14.447199
4575000000,-53.854664,-1.9583024
4578000000,-53.821934,-18.360964
4581000000,-53.825832,-32.815506
4584000000,-53.867367,-49.066376
4587000000,-53.785408,-65.819542
4590000000,-53.84396,-83.472572
4593000000,-53.811478,-99.412399
4596000000,-53.926182,-116.45001
4599000000,-53.817558,-131.20357
4602000000,-53.921104,-148.7103
4605000000,-53.925827,-164.67375
4608000000,-54.085197,179.2919
4611000000,-54.054432,164.16374
4614000000,-54.197124,148.48764
4617000000,-53.993294,131.47861
4620000000,-54.100262,116.40012
4623000000,-54.172859,100.09269
4626000000,-54.082523,83.395103
4629000000,-54.081432,68.286057
4632000000,-53.976398,51.835712
4635000000,-53.993221,34.784695
4638000000,-53.893791,18.97826
4641000000,-53.906933,3.105655
4644000000,-53.812485,-13.585999
4647000000,-54.004898,-31.236023
4650000000,-54.263496,-48.073273
4653000000,-54.274181,-63.565182
4656000000,-54.380959,-79.317505
4659000000,-54.187939,-93.636406
4662000000,-54.201714,-110.69926
4665000000,-54.191097,-127.15401
4668000000,-54.328857,-143.2206
4671000000,-54.26054,-158.88129
4674000000,-54.398697,-175.80806
4677000000,-54.299084,169.59796
4680000000,-54.207874,153.89705
4683000000,-54.104683,137.80103
4686000000,-54.118248,122.2329
4689000000,-54.218426,105.28982
4692000000,-54.153751,89.673401
4695000000,-54.039242,72.646957
4698000000,-53.980225,56.745285
4701000000,-54.022579,40.313457
4704000000,-54.137371,23.542366
4707000000,-54.123081,8.0710077
4710000000,-54.183952,-8.1947403
4713000000,-54.168468,-25.196707
4716000000,-53.936264,-41.287655
4719000000,-54.065903,-57.268147
4722000000,-54.082035,-73.460899
4725000000,-54.003521,-89.747673
4728000000,-54.101669,-106.30123
4731000000,-53.951191,-122.87595
4734000000,-54.3265,-140.30568
4737000000,-54.31361,-156.31923
4740000000,-54.330757,-171.48003
4743000000,-54.395805,172.61011
4746000000,-54.35564,156.16272
4749000000,-54.406582,140.40593
4752000000,-54.353107,124.40987
4755000000,-54.295612,108.62263
4758000000,-54.457642,91.800171
4761000000,-54.258621,77.3004
4764000000,-54.440762,61.17453
4767000000,-54.361626,44.784119
4770000000,-54.487064,29.076197
4773000000,-54.410229,12.542208
4776000000,-54.15583,-2.9690349
4779000000,-54.30151,-19.202671
4782000000,-54.073002,-36.202293
4785000000,-54.254314,-51.817955
4788000000,-54.333012,-67.427452
4791000000,-54.395405,-84.093086
4794000000,-54.311642,-100.62489
4797000000,-54.091198,-117.07731
4800000000,-54.267597,-133.94943
4803000000,-54.168358,-150.54724
4806000000,-54.59882,-166.21062
4809000000,-54.356915,178.8455
4812000000,-54.2402,161.64447
4815000000,-54.344208,146.20398
4818000000,-54.455215,129.10312
4821000000,-54.455448,113.02574
4824000000,-54.587952,97.921524
4827000000,-54.641033,81.618736
4830000000,-54.541035,66.421852
4833000000,-54.46405,51.028999
4836000000,-54.252789,34.902225
4839000000,-54.326096,18.293768
4842000000,-54.229485,0.74743325
4845000000,-54.476078,-16.32744
4848000000,-54.516689,-31.08931
4851000000,-54.383865,-46.814026
4854000000,-54.263554,-61.590359
4857000000,-54.220768,-77.513626
4860000000,-54.263836,-95.237267
4863000000,-54.174686,-111.8653
4866000000,-54.342335,-127.83442
4869000000,-54.596344,-145.31395
4872000000,-54.493229,-161.02751
4875000000,-54.536373,-177.03972
4878000000,-54.421764,166.90811
4881000000,-54.579975,153.12785
4884000000,-54.402882,134.3667
4887000000,-54.531929,119.21392
4890000000,-54.513897,102.49868
4893000000,-54.486023,86.94722
4896000000,-54.739906,69.500717
4899000000,-54.70488,53.529976
4902000000,-54.79604,38.520721
4905000000,-54.524433,24.140871
4908000000,-54.423428,7.9711356
4911000000,-54.441467,-8.9943323
4914000000,-54.15604,-25.763094
4917000000,-54.386066,-43.923012
4920000000,-54.34473,-58.430351
4923000000,-54.517029,-74.327194
4926000000,-54.60582,-90.473991
4929000000,-54.468159,-106.71291
4932000000,-54.470867,-122.58102
4935000000,-54.498505,-140.74307
4938000000,-54.564278,-156.63075
4941000000,-54.708633,-173.17812
4944000000,-54.852901,170.39618
4947000000,-54.944187,155.42526
4950000000,-54.808289,140.44037
4953000000,-54.676388,125.71468
4956000000,-54.792522,108.44332
4959000000,-54.626534,92.841568
4962000000,-54.814972,75.139038
4965000000,-54.675243,58.556873
4968000000,-54.762886,43.390018
4971000000,-54.873463,28.664289
4974000000,-54.895912,14.034363
4977000000,-54.638382,-2.4943912
4980000000,-54.48959,-18.685375
4983000000,-54.529633,-33.806747
4986000000,-54.561234,-51.697842
4989000000,-54.436913,-67.358871
4992000000,-54.533836,-84.216248
4995000000,-54.532154,-99.043037
4998000000,-54.555019,-115.66341
5001000000,-54.196358,-130.48636
5004000000,-54.227844,-146.97835
5007000000,-54.388191,-163.96445
5010000000,-54.24931,178.80745
5013000000,-54.279785,161.96846
5016000000,-54.422794,146.66962
5019000000,-54.242558,130.72623
5022000000,-54.443031,113.92889
5025000000,-54.341457,98.30294
5028000000,-54.405315,81.401527
5031000000,-54.396637,64.201012
5034000000,-54.40107,48.149567
5037000000,-54.500301,32.977375
5040000000,-54.540131,15.295181
5043000000,-54.818451,-0.17811947
5046000000,-54.668758,-16.130959
5049000000,-54.542599,-32.903458
5052000000,-54.742699,-47.848984
5055000000,-54.625053,-63.391159
5058000000,-54.730137,-80.187309
5061000000,-54.763176,-96.63929
5064000000,-54.731686,-112.02606
5067000000,-54.710503,-127.81414
5070000000,-54.625729,-143.27472
5073000000,-54.881798,-160.79877
5076000000,-54.75737,-176.658
5079000000,-54.438148,167.49312
5082000000,-54.572071,150.52325
5085000000,-54.487179,135.11911
5088000000,-54.66959,119.12636
5091000000,-54.514786,102.72878
5094000000,-54.59697,86.53553
5097000000,-54.465141,72.49205
5100000000,-54.436134,54.079884
5103000000,-54.481602,37.571491
5106000000,-54.620686,20.535702
5109000000,-54.61467,6.3079219
5112000000,-54.598473,-9.8471661
5115000000,-54.363777,-25.917814
5118000000,-54.316086,-44.288677
5121000000,-54.465855,-59.111107
5124000000,-54.496868,-74.180656
5127000000,-54.375309,-90.752785
5130000000,-54.4132,-108.07349
5133000000,-54.351463,-122.77573
5136000000,-54.350044,-140.69437
5139000000,-54.392765,-155.89259
5142000000,-54.358494,-173.26953
5145000000,-54.376011,170.7119
5148000000,-54.435326,154.88487
5151000000,-54.502171,138.71823
5154000000,-54.481144,122.62009
5157000000,-54.474915,105.26969
5160000000,-54.410385,88.850487
5163000000,-54.475178,73.510887
5166000000,-54.729134,57.243168
5169000000,-55.038628,40.145184
5172000000,-55.039845,26.05168
5175000000,-54.953133,9.6115389
5178000000,-54.74361,-6.0687814
5181000000,-54.826019,-21.868959
5184000000,-54.709,-37.713757
5187000000,-54.869732,-55.206493
5190000000,-54.884773,-68.912682
5193000000,-54.618019,-84.979309
5196000000,-54.7514,-101.59003
5199000000,-54.545212,-118.90126
5202000000,-54.691147,-133.97537
5205000000,-54.441921,-150.22513
5208000000,-54.360775,-167.62602
5211000000,-54.565365,174.96371
5214000000,-54.662529,160.06282
5217000000,-54.525734,144.89636
5220000000,-54.822601,128.52757
5223000000,-54.774288,113.36099
5226000000,-54.861271,96.507042
5229000000,-54.551422,80.089058
5232000000,-54.531853,63.120827
5235000000,-54.658596,47.12262
5238000000,-54.950531,29.845669
5241000000,-54.79755,13.923209
5244000000,-55.143715,-0.2663303
5247000000,-54.854637,-17.473927
5250000000,-54.78334,-32.45298
5253000000,-54.898754,-48.72654
5256000000,-54.775551,-64.53215
5259000000,-54.71085,-81.281395
5262000000,-54.58041,-96.156548
5265000000,-54.809387,-113.31441
5268000000,-54.635548,-128.78409
5271000000,-54.7864,-145.8896
5274000000,-54.912262,-162.04321
5277000000,-54.872025,-178.80544
5280000000,-54.842712,165.03564
5283000000,-54.767525,149.30042
5286000000,-54.801891,132.23877
5289000000,-54.690056,116.64466
5292000000,-54.808384,101.68726
5295000000,-54.879299,83.099068
5298000000,-55.016544,69.656517
5301000000,-54.8498,52.082382
5304000000,-54.823818,37.19865
5307000000,-54.747208,19.914473
5310000000,-54.685406,5.4529238
5313000000,-54.733925,-11.518025
5316000000,-54.531734,-27.347063
5319000000,-54.706371,-44.112968
5322000000,-55.038433,-60.484398
5325000000,-55.16856,-76.190804
5328000000,-54.871815,-90.485184
5331000000,-54.712917,-107.84647
5334000000,-54.939548,-122.51909
5337000000,-54.705666,-139.78062
5340000000,-54.664047,-156.19453
5343000000,-54.917107,-172.66644
5346000000,-54.974777,171.0687
5349000000,-55.186302,156.76167
5352000000,-54.769169,139.68867
5355000000,-54.78059,126.14079
5358000000,-54.878784,108.7149
5361000000,-54.578846,90.721596
5364000000,-54.896343,74.046303
5367000000,-54.902672,58.839798
5370000000,-55.206608,42.225906
5373000000,-55.06646,26.875401
5376000000,-54.962212,11.904712
5379000000,-54.935856,-5.5310512
5382000000,-54.699348,-21.349663
5385000000,-54.464996,-37.535141
5388000000,-54.765255,-54.653568
5391000000,-54.782146,-71.22821
5394000000,-54.784271,-87.45858
5397000000,-55.102451,-101.90684
5400000000,-54.830803,-117.25943
5403000000,-54.927948,-134.18062
5406000000,-54.679169,-150.6384
5409000000,-54.716125,-167.88997
5412000000,-54.776043,175.51299
5415000000,-54.723091,159.58215
5418000000,-54.745338,144.01382
5421000000,-54.749809,127.36221
5424000000,-54.959427,111.41784
5427000000,-54.969395,96.864456
5430000000,-54.894825,79.443741
5433000000,-54.771236,63.477627
5436000000,-54.766136,46.986439
5439000000,-54.847771,32.761951
5442000000,-54.89254,14.624418
5445000000,-54.731815,0.17330518
5448000000,-54.948524,-17.173311
5451000000,-54.905407,-32.65374
5454000000,-55.160927,-48.9869
5457000000,-54.818092,-65.71788
5460000000,-55.114727,-80.936302
5463000000,-55.124779,-97.476036
5466000000,-54.913471,-113.33063
5469000000,-55.020061,-131.21733
5472000000,-55.093021,-146.03763
5475000000,-54.809437,-162.92209
5478000000,-55.190639,-178.90401
5481000000,-55.093197,165.12589
5484000000,-55.040794,151.34193
5487000000,-54.856461,134.75204
5490000000,-54.816113,119.33675
5493000000,-54.646221,103.07746
5496000000,-54.62072,84.431458
5499000000,-54.912636,68.005608
5502000000,-54.965534,51.775524
5505000000,-55.068962,35.227547
5508000000,-54.894382,21.185066
5511000000,-54.928089,6.0682983
5514000000,-54.700012,-11.358297
5517000000,-54.872231,-28.397852
5520000000,-54.913834,-43.687717
5523000000,-54.828712,-60.436527
5526000000,-54.965767,-77.242813
5529000000,-54.719555,-92.955696
5532000000,-54.877022,-110.11996
5535000000,-54.934982,-126.23061
5538000000,-55.025581,-140.90367
5541000000,-54.949833,-155.94514
5544000000,-55.06097,-173.4774
5547000000,-54.793888,170.53046
5550000000,-54.636463,153.03265
5553000000,-54.809269,135.91905
5556000000,-55.122028,120.93495
5559000000,-55.154099,105.0963
5562000000,-54.932323,90.085381
5565000000,-55.065212,74.440857
5568000000,-54.927822,57.533157
5571000000,-55.040337,41.875301
5574000000,-55.161659,25.078419
5577000000,-55.231339,6.7931495
5580000000,-55.16304,-7.3739533
5583000000,-55.203823,-23.202991
5586000000,-55.095196,-39.970055
5589000000,-55.290272,-55.634392
5592000000,-55.335693,-71.886871
5595000000,-54.914478,-88.142761
5598000000,-54.963772,-102.46992
5601000000,-54.790188,-120.74889
5604000000,-55.015965,-137.87263
5607000000,-55.119186,-153.98981
5610000000,-55.244179,-168.39299
5613000000,-55.232567,175.07779
5616000000,-55.522278,160.76933
5619000000,-55.159176,144.68645
5622000000,-55.11908,127.15388
5625000000,-54.95248,111.86639
5628000000,-54.943207,96.654961
5631000000,-55.134304,79.065628
5634000000,-55.208977,62.954319
5637000000,-55.218391,46.553989
5640000000,-55.303123,28.71434
5643000000,-55.24913,14.326168
5646000000,-55.154716,-1.1888245
5649000000,-55.205097,-17.623611
5652000000,-55.20713,-34.623974
5655000000,-55.364834,-49.065239
5658000000,-55.544319,-67.644798
5661000000,-55.320183,-83.825485
5664000000,-55.870533,-99.893463
5667000000,-55.830982,-113.49228
5670000000,-55.924946,-127.82114
5673000000,-55.789486,-143.74875
5676000000,-55.617512,-159.75346
5679000000,-55.535835,-178.20399
5682000000,-55.664268,164.6315
5685000000,-55.529434,148.48
5688000000,-55.764454,132.82831
5691000000,-55.728226,116.85777
5694000000,-55.758507,103.66278
5697000000,-55.54155,86.440315
5700000000,-55.819584,69.852608
5703000000,-55.560558,56.977219
5706000000,-55.846561,38.61039
5709000000,-55.402637,21.477896
5712000000,-55.704403,5.5254097
5715000000,-55.652191,-11.378345
5718000000,-55.61861,-26.16774
5721000000,-55.504898,-42.983677
5724000000,-55.620712,-56.667915
5727000000,-55.701286,-71.6175
5730000000,-55.324509,-88.955193
5733000000,-55.471943,-106.88866
5736000000,-55.514019,-122.02103
5739000000,-55.467167,-139.57623
5742000000,-55.665764,-156.78896
5745000000,-55.684803,-169.88463
5748000000,-55.970879,175.79204
5751000000,-55.441216,158.83931
5754000000,-55.486473,142.05177
5757000000,-55.647503,126.19426
5760000000,-55.442993,108.99091
5763000000,-55.620049,93.161407
5766000000,-55.50193,75.447075
5769000000,-55.777832,61.165699
5772000000,-55.765388,42.986565
5775000000,-55.7729,27.658674
5778000000,-55.686508,11.925194
5781000000,-55.601479,-3.06566
5784000000,-55.444073,-20.251463
5787000000,-55.390182,-37.063683
5790000000,-55.729084,-55.416798
5793000000,-55.97578,-68.00956
5796000000,-56.087364,-84.285332
5799000000,-55.855057,-101.24718
5802000000,-55.752571,-113.61117
5805000000,-55.813595,-130.51526
5808000000,-55.672813,-148.4239
5811000000,-56.101269,-165.61665
5814000000,-56.052731,179.37285
5817000000,-55.996353,163.66467
5820000000,-56.185646,147.35219
5823000000,-55.982697,132.04256
5826000000,-55.739365,116.44441
5829000000,-55.772629,100.69163
5832000000,-56.077446,84.36129
5835000000,-56.060574,68.827766
5838000000,-55.929985,50.678192
5841000000,-55.962841,34.182049
5844000000,-55.694542,20.409903
5847000000,-55.963188,3.8317015
5850000000,-56.137112,-11.021625
5853000000,-55.988426,-26.966873
5856000000,-56.044701,-41.289211
5859000000,-56.051636,-56.347786
5862000000,-55.807335,-73.186783
5865000000,-55.637329,-90.222488
5868000000,-55.904461,-107.29246
5871000000,-55.739677,-122.37827
5874000000,-55.767292,-136.81485
5877000000,-55.835457,-154.26091
5880000000,-55.88451,-170.047
5883000000,-55.794174,172.23302
5886000000,-56.035755,157.47397
5889000000,-55.920536,142.37735
5892000000,-55.706539,125.19568
5895000000,-55.786079,106.78451
5898000000,-55.717529,90.454643
5901000000,-56.000603,76.830132
5904000000,-56.094894,60.683014
5907000000,-55.89954,43.798096
5910000000,-55.970612,30.09153
5913000000,-55.916275,13.835465
5916000000,-55.837791,-5.158411
5919000000,-55.852642,-19.965139
5922000000,-55.550636,-35.893814
5925000000,-55.754902,-52.419567
5928000000,-55.913364,-67.669907
5931000000,-56.032246,-84.041405
5934000000,-56.022278,-98.558647
5937000000,-56.015121,-115.12915
5940000000,-55.815598,-133.26561
5943000000,-55.707268,-148.70645
5946000000,-55.859917,-163.73764
5949000000,-55.953522,176.95921
5952000000,-56.216099,162.78937
5955000000,-56.036526,147.39215
5958000000,-56.046303,133.71542
5961000000,-56.013515,116.65479
5964000000,-55.919846,103.1079
5967000000,-55.986046,84.301445
5970000000,-55.735268,69.478119
5973000000,-55.643085,53.351902
5976000000,-55.816372,33.75478
5979000000,-55.731014,21.18634
5982000000,-55.916355,5.9475508
5985000000,-55.822086,-10.306246
5988000000,-55.813271,-25.751486
5991000000,-55.618687,-40.652405
5994000000,-55.719448,-58.805038
5997000000,-55.58152,-76.127892
6000000000,-55.65366,-90.527763
END

