!CSV A.01.01
!Keysight Technologies,N5227B,US58420762,A.13.80.08
!Date: Monday, November 20, 2023 15:52:44
!Source: Standard

BEGIN CH1_DATA
Time(s),S21(DB),S21(DEG)
1e-008,-120.70436,64.26223
1.001e-008,-121.03519,82.715973
1.002e-008,-121.35886,101.40628
1.003e-008,-121.66721,120.31806
1.004e-008,-121.95296,139.42802
1.005e-008,-122.20837,158.69711
1.006e-008,-122.42619,178.06905
1.007e-008,-122.60192,-162.52087
1.008e-008,-122.73268,-143.1463
1.009e-008,-122.81861,-123.88519
1.01e-008,-122.86176,-104.80957
1.011e-008,-122.86736,-85.986732
1.012e-008,-122.84135,-67.470184
1.013e-008,-122.79102,-49.299492
1.014e-008,-122.72318,-31.502743
1.015e-008,-122.64471,-14.094435
1.016e-008,-122.56094,2.9184582
1.017e-008,-122.47624,19.535826
1.018e-008,-122.3938,35.761932
1.019e-008,-122.31686,51.604702
1.02e-008,-122.24523,67.074959
1.021e-008,-122.17941,82.182724
1.022e-008,-122.11806,96.943108
1.023e-008,-122.05968,111.36564
1.024e-008,-122.00168,125.4723
1.025e-008,-121.94118,139.28011
1.026e-008,-121.87475,152.80653
1.027e-008,-121.79981,166.08418
1.028e-008,-121.7128,179.14247
1.029e-008,-121.61124,-167.98747
1.03e-008,-121.49282,-155.27193
1.031e-008,-121.35675,-142.66621
1.032e-008,-121.20274,-130.13635
1.033e-008,-121.03107,-117.64583
1.034e-008,-120.8436,-105.16324
1.035e-008,-120.643,-92.653603
1.036e-008,-120.43143,-80.098305
1.037e-008,-120.21218,-67.475082
1.038e-008,-119.98898,-54.772186
1.039e-008,-119.76484,-41.981884
1.04e-008,-119.54298,-29.098509
1.041e-008,-119.32598,-16.122791
1.042e-008,-119.11678,-3.059891
1.043e-008,-118.91718,10.08759
1.044e-008,-118.7291,23.313038
1.045e-008,-118.55399,36.607738
1.046e-008,-118.39307,49.962532
1.047e-008,-118.24695,63.371696
1.048e-008,-118.11626,76.82486
1.049e-008,-118.00098,90.31308
1.05e-008,-117.90167,103.82879
1.051e-008,-117.81801,117.36821
1.052e-008,-117.74951,130.92119
1.053e-008,-117.69581,144.48601
1.054e-008,-117.65659,158.0546
1.055e-008,-117.63084,171.62831
1.056e-008,-117.61806,-174.79768
1.057e-008,-117.6172,-161.22356
1.058e-008,-117.6281,-147.64966
1.059e-008,-117.64941,-134.07056
1.06e-008,-117.68061,-120.48557
1.061e-008,-117.72091,-106.88853
1.062e-008,-117.77036,-93.274902
1.063e-008,-117.82764,-79.63279
1.064e-008,-117.8931,-65.959373
1.065e-008,-117.96663,-52.240284
1.066e-008,-118.04832,-38.468075
1.067e-008,-118.13847,-24.625738
1.068e-008,-118.23788,-10.705683
1.069e-008,-118.34713,3.3065162
1.07e-008,-118.46761,17.426363
1.071e-008,-118.60026,31.666502
1.072e-008,-118.74665,46.041775
1.073e-008,-118.90822,60.568451
1.074e-008,-119.08708,75.262413
1.075e-008,-119.28442,90.141853
1.076e-008,-119.50241,105.22617
1.077e-008,-119.7426,120.53572
1.078e-008,-120.00691,136.09747
1.079e-008,-120.29597,151.93738
1.08e-008,-120.61133,168.08687
1.081e-008,-120.95321,-175.41495
1.082e-008,-121.32101,-158.52257
1.083e-008,-121.71149,-141.1906
1.084e-008,-122.12203,-123.3607
1.085e-008,-122.54438,-104.97329
1.086e-008,-122.96816,-85.965141
1.087e-008,-123.37699,-66.291954
1.088e-008,-123.75149,-45.924332
1.089e-008,-124.06615,-24.88269
1.09e-008,-124.29359,-3.2346742
1.091e-008,-124.41001,18.85289
1.092e-008,-124.40091,41.17313
1.093e-008,-124.2628,63.470333
1.094e-008,-124.00739,85.514549
1.095e-008,-123.65789,107.12611
1.096e-008,-123.24165,128.19667
1.097e-008,-122.78513,148.68785
1.098e-008,-122.31341,168.60899
1.099e-008,-121.84472,-171.99371
1.1e-008,-121.39316,-153.05876
1.101e-008,-120.96862,-134.52873
1.102e-008,-120.57809,-116.34653
1.103e-008,-120.2266,-98.45005
1.104e-008,-119.91644,-80.795471
1.105e-008,-119.65067,-63.343819
1.106e-008,-119.43011,-46.05706
1.107e-008,-119.25615,-28.903418
1.108e-008,-119.1297,-11.858699
1.109e-008,-119.05175,5.1038074
1.11e-008,-119.02379,22.003624
1.111e-008,-119.04695,38.863567
1.112e-008,-119.12309,55.702274
1.113e-008,-119.25434,72.537888
1.114e-008,-119.44332,89.392509
1.115e-008,-119.69392,106.29355
1.116e-008,-120.00968,123.26427
1.117e-008,-120.39621,140.33701
1.118e-008,-120.85998,157.55698
1.119e-008,-121.40881,174.98247
1.12e-008,-122.05226,-167.31261
1.121e-008,-122.80228,-149.22006
1.122e-008,-123.67302,-130.5789
1.123e-008,-124.67883,-111.14527
1.124e-008,-125.83356,-90.555725
1.125e-008,-127.13579,-68.214012
1.126e-008,-128.54225,-43.241261
1.127e-008,-129.89354,-14.522593
1.128e-008,-130.82835,18.478193
1.129e-008,-130.89381,53.873894
1.13e-008,-130.03165,87.564339
1.131e-008,-128.65605,117.04081
1.132e-008,-127.17174,142.50777
1.133e-008,-125.76981,165.06157
1.134e-008,-124.51086,-174.34862
1.135e-008,-123.40159,-155.08653
1.136e-008,-122.42992,-136.74542
1.137e-008,-121.58026,-119.06857
1.138e-008,-120.83791,-101.88701
1.139e-008,-120.19093,-85.090324
1.14e-008,-119.62874,-68.599075
1.141e-008,-119.14239,-52.366344
1.142e-008,-118.72453,-36.351734
1.143e-008,-118.36974,-20.530558
1.144e-008,-118.07249,-4.8858776
1.145e-008,-117.82882,10.591735
1.146e-008,-117.63478,25.91169
1.147e-008,-117.48727,41.074497
1.148e-008,-117.38303,56.082607
1.149e-008,-117.31931,70.932121
1.15e-008,-117.2935,85.62014
1.151e-008,-117.30268,100.13873
1.152e-008,-117.34425,114.48518
1.153e-008,-117.41482,128.64958
1.154e-008,-117.51126,142.62453
1.155e-008,-117.63013,156.40453
1.156e-008,-117.76674,169.98802
1.157e-008,-117.91727,-176.63197
1.158e-008,-118.07666,-163.44754
1.159e-008,-118.2397,-150.45467
1.16e-008,-118.40102,-137.6362
1.161e-008,-118.55608,-124.97057
1.162e-008,-118.69995,-112.42683
1.163e-008,-118.82907,-99.965233
1.164e-008,-118.94034,-87.539268
1.165e-008,-119.03327,-75.100418
1.166e-008,-119.10841,-62.595787
1.167e-008,-119.16799,-49.970844
1.168e-008,-119.21552,-37.176327
1.169e-008,-119.25627,-24.172512
1.17e-008,-119.29607,-10.91774
1.171e-008,-119.34127,2.6171348
1.172e-008,-119.39829,16.464876
1.173e-008,-119.47374,30.644552
1.174e-008,-119.57362,45.181236
1.175e-008,-119.70355,60.098949
1.176e-008,-119.86862,75.429482
1.177e-008,-120.07341,91.204552
1.178e-008,-120.32066,107.47324
1.179e-008,-120.6129,124.29465
1.18e-008,-120.94851,141.74463
1.181e-008,-121.3239,159.9194
1.182e-008,-121.729,178.93629
1.183e-008,-122.14537,-161.0793
1.184e-008,-122.54275,-140.00555
1.185e-008,-122.8766,-117.7887
1.186e-008,-123.09039,-94.472855
1.187e-008,-123.12514,-70.310631
1.188e-008,-122.94041,-45.745975
1.189e-008,-122.53075,-21.317968
1.19e-008,-121.9281,2.490207
1.191e-008,-121.19001,25.377464
1.192e-008,-120.3737,47.244625
1.193e-008,-119.52906,68.133881
1.194e-008,-118.69028,88.159164
1.195e-008,-117.87894,107.45341
1.196e-008,-117.10854,126.14245
1.197e-008,-116.38535,144.33722
1.198e-008,-115.7124,162.12843
1.199e-008,-115.09041,179.58823
1.2e-008,-114.51853,-163.22754
1.201e-008,-113.99568,-146.2691
1.202e-008,-113.52013,-129.50311
1.203e-008,-113.09042,-112.89981
1.204e-008,-112.70469,-96.438911
1.205e-008,-112.36139,-80.098839
1.206e-008,-112.05927,-63.868172
1.207e-008,-111.79674,-47.735439
1.208e-008,-111.5731,-31.692966
1.209e-008,-111.387,-15.732287
1.21e-008,-111.23764,0.14836335
1.211e-008,-111.12416,15.953647
1.212e-008,-111.04624,31.685022
1.213e-008,-111.00294,47.343174
1.214e-008,-110.99447,62.925838
1.215e-008,-111.01962,78.432396
1.216e-008,-111.0788,93.858704
1.217e-008,-111.17136,109.20345
1.218e-008,-111.29713,124.45575
1.219e-008,-111.45621,139.61382
1.22e-008,-111.64807,154.66736
1.221e-008,-111.87234,169.60834
1.222e-008,-112.12889,-175.57654
1.223e-008,-112.41684,-160.89879
1.224e-008,-112.73556,-146.37177
1.225e-008,-113.08369,-132.01334
1.226e-008,-113.46006,-117.84086
1.227e-008,-113.86179,-103.87228
1.228e-008,-114.28623,-90.129211
1.229e-008,-114.72962,-76.627449
1.23e-008,-115.1867,-63.387825
1.231e-008,-115.65115,-50.42107
1.232e-008,-116.11578,-37.734638
1.233e-008,-116.57113,-25.32159
1.234e-008,-117.00843,-13.161873
1.235e-008,-117.41782,-1.2187663
1.236e-008,-117.79025,10.567992
1.237e-008,-118.11852,22.279045
1.238e-008,-118.39857,34.004185
1.239e-008,-118.62951,45.845592
1.24e-008,-118.8147,57.905811
1.241e-008,-118.96042,70.275749
1.242e-008,-119.07497,83.028946
1.243e-008,-119.16766,96.230492
1.244e-008,-119.24799,109.92042
1.245e-008,-119.32413,124.1332
1.246e-008,-119.40313,138.88542
1.247e-008,-119.48864,154.19234
1.248e-008,-119.58258,170.06273
1.249e-008,-119.68452,-173.48769
1.25e-008,-119.79105,-156.46365
1.251e-008,-119.89562,-138.85898
1.252e-008,-119.98888,-120.6904
1.253e-008,-120.05936,-101.98273
1.254e-008,-120.09507,-82.789474
1.255e-008,-120.0825,-63.18679
1.256e-008,-120.0117,-43.283348
1.257e-008,-119.87558,-23.206144
1.258e-008,-119.67326,-3.0923467
1.259e-008,-119.40869,16.919928
1.26e-008,-119.09109,36.714085
1.261e-008,-118.73273,56.206131
1.262e-008,-118.34815,75.335106
1.263e-008,-117.95037,94.067398
1.264e-008,-117.5519,112.39635
1.265e-008,-117.16262,130.3264
1.266e-008,-116.79128,147.87349
1.267e-008,-116.44402,165.05453
1.268e-008,-116.12564,-178.11337
1.269e-008,-115.8392,-161.61145
1.27e-008,-115.5871,-145.42453
1.271e-008,-115.37024,-129.54657
1.272e-008,-115.18929,-113.96766
1.273e-008,-115.04362,-98.686417
1.274e-008,-114.93236,-83.704567
1.275e-008,-114.85384,-69.029572
1.276e-008,-114.80557,-54.669846
1.277e-008,-114.78388,-40.634422
1.278e-008,-114.78477,-26.935646
1.279e-008,-114.80297,-13.586362
1.28e-008,-114.83143,-0.59488112
1.281e-008,-114.86232,12.036853
1.282e-008,-114.88683,24.315607
1.283e-008,-114.89531,36.260014
1.284e-008,-114.87794,47.905006
1.285e-008,-114.82578,59.305828
1.286e-008,-114.73165,70.531822
1.287e-008,-114.59123,81.664772
1.288e-008,-114.40375,92.793503
1.289e-008,-114.17168,104.00388
1.29e-008,-113.90064,115.37199
1.291e-008,-113.59893,126.9571
1.292e-008,-113.27596,138.80069
1.293e-008,-112.94129,150.92784
1.294e-008,-112.6046,163.34807
1.295e-008,-112.27406,176.05502
1.296e-008,-111.95705,-170.96144
1.297e-008,-111.65996,-157.71899
1.298e-008,-111.3877,-144.23741
1.299e-008,-111.1447,-130.53993
1.3e-008,-110.93417,-116.64622
1.301e-008,-110.75928,-102.5774
1.302e-008,-110.6225,-88.352806
1.303e-008,-110.52585,-73.991234
1.304e-008,-110.4716,-59.507595
1.305e-008,-110.46182,-44.917778
1.306e-008,-110.49844,-30.235359
1.307e-008,-110.58388,-15.47384
1.308e-008,-110.72069,-0.64522976
1.309e-008,-110.91167,14.240689
1.31e-008,-111.16038,29.170488
1.311e-008,-111.4709,44.134018
1.312e-008,-111.84811,59.11845
1.313e-008,-112.2982,74.112053
1.314e-008,-112.82856,89.099121
1.315e-008,-113.4487,104.06122
1.316e-008,-114.17075,118.97585
1.317e-008,-115.01093,133.81198
1.318e-008,-115.99076,148.52484
1.319e-008,-117.14026,163.04253
1.32e-008,-118.5029,177.25615
1.321e-008,-120.14433,-169.03534
1.322e-008,-122.17094,-156.22958
1.323e-008,-124.76554,-145.24017
1.324e-008,-128.25868,-138.64661
1.325e-008,-132.99152,-145.87825
1.326e-008,-135.25681,173.58002
1.327e-008,-131.0674,149.95279
1.328e-008,-127.38092,151.60385
1.329e-008,-124.83238,160.85429
1.33e-008,-123.01342,172.85687
1.331e-008,-121.68251,-173.90172
1.332e-008,-120.70775,-160.01244
1.333e-008,-120.01355,-145.78003
1.334e-008,-119.55707,-131.36072
1.335e-008,-119.31433,-116.86753
1.336e-008,-119.27544,-102.39336
1.337e-008,-119.44267,-88.027954
1.338e-008,-119.83024,-73.882683
1.339e-008,-120.46613,-60.125259
1.34e-008,-121.3995,-47.027115
1.341e-008,-122.71095,-35.109531
1.342e-008,-124.52592,-25.477848
1.343e-008,-127.00348,-20.911747
1.344e-008,-129.94475,-28.657564
1.345e-008,-130.73724,-54.954971
1.346e-008,-127.60527,-72.820717
1.347e-008,-124.07887,-73.051704
1.348e-008,-121.22564,-65.344185
1.349e-008,-118.94515,-54.240646
1.35e-008,-117.08307,-41.472301
1.351e-008,-115.53252,-27.77932
1.352e-008,-114.22432,-13.522613
1.353e-008,-113.11277,1.0974672
1.354e-008,-112.16685,15.966873
1.355e-008,-111.3653,31.013006
1.356e-008,-110.69327,46.185692
1.357e-008,-110.14097,61.452614
1.358e-008,-109.70232,76.788765
1.359e-008,-109.37423,92.174675
1.36e-008,-109.15675,107.59331
1.361e-008,-109.05284,123.03226
1.362e-008,-109.06865,138.47664
1.363e-008,-109.21434,153.91223
1.364e-008,-109.50575,169.31953
1.365e-008,-109.96602,-175.32468
1.366e-008,-110.63082,-160.05757
1.367e-008,-111.55499,-144.94228
1.368e-008,-112.82941,-130.09203
1.369e-008,-114.61836,-115.7598
1.37e-008,-117.26186,-102.62693
1.371e-008,-121.6524,-93.382477
1.372e-008,-130.82632,-114.03143
1.373e-008,-125.16763,158.27779
1.374e-008,-118.01105,160.00694
1.375e-008,-113.83204,171.66313
1.376e-008,-110.87148,-174.54564
1.377e-008,-108.57494,-159.96786
1.378e-008,-106.70274,-145.02281
1.379e-008,-105.13063,-129.88567
1.38e-008,-103.78616,-114.64226
1.381e-008,-102.62399,-99.343224
1.382e-008,-101.61419,-84.021225
1.383e-008,-100.7366,-68.700127
1.384e-008,-99.977348,-53.400383
1.385e-008,-99.327156,-38.140545
1.386e-008,-98.780312,-22.940481
1.387e-008,-98.333832,-7.8229394
1.388e-008,-97.987389,7.1847949
1.389e-008,-97.743073,22.047323
1.39e-008,-97.605537,36.717876
1.391e-008,-97.582382,51.131691
1.392e-008,-97.684509,65.195396
1.393e-008,-97.926682,78.770966
1.394e-008,-98.327942,91.643669
1.395e-008,-98.910484,103.46967
1.396e-008,-99.693535,113.67387
1.397e-008,-100.67007,121.2855
1.398e-008,-101.73219,124.77792
1.399e-008,-102.50005,122.57545
1.4e-008,-102.27081,115.83737
1.401e-008,-100.74709,110.38961
1.402e-008,-98.510872,110.528
1.403e-008,-96.169861,115.85905
1.404e-008,-93.970718,124.65557
1.405e-008,-91.965279,135.61238
1.406e-008,-90.143074,147.9377
1.407e-008,-88.479851,161.16277
1.408e-008,-86.951645,175.00348
1.409e-008,-85.538101,-170.71925
1.41e-008,-84.222687,-156.12256
1.411e-008,-82.992081,-141.28571
1.412e-008,-81.835564,-126.26407
1.413e-008,-80.7444,-111.0974
1.414e-008,-79.711456,-95.814896
1.415e-008,-78.730804,-80.438522
1.416e-008,-77.797493,-64.985008
1.417e-008,-76.907349,-49.467358
1.418e-008,-76.056786,-33.895878
1.419e-008,-75.242775,-18.278763
1.42e-008,-74.462662,-2.6226449
1.421e-008,-73.714142,13.06705
1.422e-008,-72.995201,28.785839
1.423e-008,-72.304054,44.529984
1.424e-008,-71.639122,60.296345
1.425e-008,-70.999008,76.082283
1.426e-008,-70.382446,91.885529
1.427e-008,-69.7883,107.70412
1.428e-008,-69.215569,123.53639
1.429e-008,-68.663307,139.38089
1.43e-008,-68.130684,155.23634
1.431e-008,-67.616936,171.10161
1.432e-008,-67.121361,-173.02429
1.433e-008,-66.643311,-157.14221
1.434e-008,-66.182205,-141.25298
1.435e-008,-65.737495,-125.35724
1.436e-008,-65.308678,-109.45565
1.437e-008,-64.895294,-93.548782
1.438e-008,-64.49691,-77.637131
1.439e-008,-64.113136,-61.721169
1.44e-008,-63.743584,-45.801334
1.441e-008,-63.387924,-29.878004
1.442e-008,-63.045826,-13.951554
1.443e-008,-62.716995,1.9776924
1.444e-008,-62.40115,17.909428
1.445e-008,-62.098026,33.843361
1.446e-008,-61.807377,49.779228
1.447e-008,-61.528976,65.716774
1.448e-008,-61.262604,81.655769
1.449e-008,-61.008064,97.595978
1.45e-008,-60.765163,113.5372
1.451e-008,-60.53373,129.47923
1.452e-008,-60.313587,145.42186
1.453e-008,-60.104584,161.36493
1.454e-008,-59.906578,177.30824
1.455e-008,-59.719429,-166.74837
1.456e-008,-59.543003,-150.80505
1.457e-008,-59.377186,-134.86198
1.458e-008,-59.221863,-118.91935
1.459e-008,-59.076927,-102.97726
1.46e-008,-58.94228,-87.035881
1.461e-008,-58.817829,-71.095375
1.462e-008,-58.703487,-55.155888
1.463e-008,-58.599182,-39.217564
1.464e-008,-58.504829,-23.280558
1.465e-008,-58.420368,-7.3450079
1.466e-008,-58.345734,8.5889301
1.467e-008,-58.280865,24.521107
1.468e-008,-58.225712,40.45137
1.469e-008,-58.180229,56.379574
1.47e-008,-58.144363,72.305557
1.471e-008,-58.118088,88.229164
1.472e-008,-58.10136,104.15023
1.473e-008,-58.094154,120.0686
1.474e-008,-58.096439,135.98409
1.475e-008,-58.108192,151.89653
1.476e-008,-58.129406,167.80577
1.477e-008,-58.160053,-176.28842
1.478e-008,-58.20013,-160.38618
1.479e-008,-58.24963,-144.48776
1.48e-008,-58.308548,-128.59332
1.481e-008,-58.376884,-112.70309
1.482e-008,-58.454647,-96.817284
1.483e-008,-58.54184,-80.936134
1.484e-008,-58.638477,-65.05986
1.485e-008,-58.744572,-49.188744
1.486e-008,-58.860146,-33.323009
1.487e-008,-58.985214,-17.462952
1.488e-008,-59.119812,-1.6088467
1.489e-008,-59.263958,14.239005
1.49e-008,-59.41769,30.080297
1.491e-008,-59.581043,45.914696
1.492e-008,-59.754059,61.741863
1.493e-008,-59.936771,77.561424
1.494e-008,-60.129234,93.372993
1.495e-008,-60.331493,109.17619
1.496e-008,-60.543602,124.97057
1.497e-008,-60.765614,140.75566
1.498e-008,-60.997593,156.53104
1.499e-008,-61.239594,172.29617
1.5e-008,-61.491688,-171.94949
1.501e-008,-61.753941,-156.2065
1.502e-008,-62.026424,-140.47543
1.503e-008,-62.309212,-124.75696
1.504e-008,-62.602386,-109.05173
1.505e-008,-62.906025,-93.360474
1.506e-008,-63.220207,-77.683945
1.507e-008,-63.545029,-62.022953
1.508e-008,-63.880566,-46.378376
1.509e-008,-64.226913,-30.751118
1.51e-008,-64.584167,-15.142154
1.511e-008,-64.952423,0.44747257
1.512e-008,-65.331764,16.016659
1.513e-008,-65.722298,31.564211
1.514e-008,-66.124115,47.088886
1.515e-008,-66.537308,62.589333
1.516e-008,-66.961983,78.064125
1.517e-008,-67.398224,93.511742
1.518e-008,-67.846115,108.93056
1.519e-008,-68.305756,124.31884
1.52e-008,-68.777229,139.67476
1.521e-008,-69.260605,154.99635
1.522e-008,-69.755951,170.28154
1.523e-008,-70.263329,-174.47191
1.524e-008,-70.782791,-159.2663
1.525e-008,-71.314369,-144.10413
1.526e-008,-71.858078,-128.98802
1.527e-008,-72.413925,-113.92072
1.528e-008,-72.981888,-98.905151
1.529e-008,-73.561935,-83.944344
1.53e-008,-74.153984,-69.041481
1.531e-008,-74.75795,-54.199871
1.532e-008,-75.373695,-39.42292
1.533e-008,-76.001045,-24.714169
1.534e-008,-76.639816,-10.077205
1.535e-008,-77.289742,4.4843235
1.536e-008,-77.950554,18.966764
1.537e-008,-78.621925,33.366436
1.538e-008,-79.303474,47.679779
1.539e-008,-79.99482,61.903248
1.54e-008,-80.695526,76.033508
1.541e-008,-81.405128,90.067375
1.542e-008,-82.123184,104.00186
1.543e-008,-82.849236,117.83417
1.544e-008,-83.582863,131.5618
1.545e-008,-84.323708,145.18216
1.546e-008,-85.071472,158.69302
1.547e-008,-85.826012,172.09174
1.548e-008,-86.587303,-174.62463
1.549e-008,-87.355484,-161.45984
1.55e-008,-88.13092,-148.41885
1.551e-008,-88.9142,-135.50861
1.552e-008,-89.706123,-122.73861
1.553e-008,-90.50766,-110.12237
1.554e-008,-91.319954,-97.677887
1.555e-008,-92.144142,-85.430138
1.556e-008,-92.981201,-73.411903
1.557e-008,-93.831566,-61.666027
1.558e-008,-94.694656,-50.247593
1.559e-008,-95.56813,-39.225697
1.56e-008,-96.446716,-28.683662
1.561e-008,-97.320518,-18.717224
1.562e-008,-98.173096,-9.426506
1.563e-008,-98.979233,-0.89833379
1.564e-008,-99.703918,6.8262463
1.565e-008,-100.30416,13.795942
1.566e-008,-100.73638,20.191072
1.567e-008,-100.96838,26.329916
1.568e-008,-100.99168,32.614063
1.569e-008,-100.82517,39.426495
1.57e-008,-100.50786,47.039467
1.571e-008,-100.08578,55.582169
1.572e-008,-99.601105,65.062965
1.573e-008,-99.086937,75.414406
1.574e-008,-98.566696,86.534904
1.575e-008,-98.055611,98.315277
1.576e-008,-97.562889,110.65293
1.577e-008,-97.093765,123.45791
1.578e-008,-96.650711,136.6532
1.579e-008,-96.234619,150.17462
1.58e-008,-95.845299,163.96863
1.581e-008,-95.482048,177.99052
1.582e-008,-95.143806,-167.79721
1.583e-008,-94.829369,-153.42596
1.584e-008,-94.53746,-138.92212
1.585e-008,-94.266861,-124.30847
1.586e-008,-94.016388,-109.60482
1.587e-008,-93.784866,-94.827614
1.588e-008,-93.571266,-79.991867
1.589e-008,-93.374573,-65.110474
1.59e-008,-93.193871,-50.194691
1.591e-008,-93.028275,-35.254765
1.592e-008,-92.876991,-20.299513
1.593e-008,-92.73922,-5.3370252
1.594e-008,-92.614265,9.6257095
1.595e-008,-92.501411,24.582361
1.596e-008,-92.399994,39.527248
1.597e-008,-92.309372,54.455456
1.598e-008,-92.22892,69.362427
1.599e-008,-92.15799,84.244446
1.6e-008,-92.095985,99.098152
1.601e-008,-92.04229,113.92085
1.602e-008,-91.996284,128.70996
1.603e-008,-91.957367,143.46396
1.604e-008,-91.924934,158.18135
1.605e-008,-91.898354,172.86133
1.606e-008,-91.877029,-172.49649
1.607e-008,-91.860367,-157.89204
1.608e-008,-91.847733,-143.32472
1.609e-008,-91.83857,-128.79349
1.61e-008,-91.832283,-114.29691
1.611e-008,-91.828362,-99.832932
1.612e-008,-91.826256,-85.399162
1.613e-008,-91.825462,-70.992859
1.614e-008,-91.825531,-56.610821
1.615e-008,-91.826065,-42.249466
1.616e-008,-91.826691,-27.904867
1.617e-008,-91.82711,-13.57297
1.618e-008,-91.827042,0.75053
1.619e-008,-91.826317,15.070295
1.62e-008,-91.824821,29.390759
1.621e-008,-91.822426,43.716774
1.622e-008,-91.819145,58.052673
1.623e-008,-91.815018,72.403297
1.624e-008,-91.81012,86.773064
1.625e-008,-91.804588,101.16621
1.626e-008,-91.798592,115.58687
1.627e-008,-91.792358,130.03888
1.628e-008,-91.786087,144.52594
1.629e-008,-91.780083,159.05138
1.63e-008,-91.774551,173.61824
1.631e-008,-91.769798,-171.77058
1.632e-008,-91.76609,-157.11267
1.633e-008,-91.763695,-142.40567
1.634e-008,-91.762848,-127.64758
1.635e-008,-91.763802,-112.83675
1.636e-008,-91.766769,-97.971611
1.637e-008,-91.771942,-83.050751
1.638e-008,-91.77948,-68.073181
1.639e-008,-91.789528,-53.037998
1.64e-008,-91.802177,-37.944363
1.641e-008,-91.81752,-22.791735
1.642e-008,-91.835587,-7.5796814
1.643e-008,-91.8564,7.6920729
1.644e-008,-91.879906,23.023674
1.645e-008,-91.906097,38.415005
1.646e-008,-91.934853,53.866058
1.647e-008,-91.966072,69.376495
1.648e-008,-91.999626,84.945808
1.649e-008,-92.035347,100.5734
1.65e-008,-92.073044,116.25858
1.651e-008,-92.112518,132.0002
1.652e-008,-92.153534,147.79715
1.653e-008,-92.195885,163.64819
1.654e-008,-92.239319,179.55165
1.655e-008,-92.283585,-164.49429
1.656e-008,-92.328445,-148.49153
1.657e-008,-92.373665,-132.4424
1.658e-008,-92.419006,-116.3493
1.659e-008,-92.464279,-100.2149
1.66e-008,-92.509247,-84.042053
1.661e-008,-92.553795,-67.834099
1.662e-008,-92.597755,-51.59399
1.663e-008,-92.641037,-35.325279
1.664e-008,-92.683571,-19.031521
1.665e-008,-92.725327,-2.716526
1.666e-008,-92.766327,13.616225
1.667e-008,-92.806625,29.962681
1.668e-008,-92.846306,46.319229
1.669e-008,-92.885567,62.68198
1.67e-008,-92.924538,79.047195
1.671e-008,-92.96347,95.411285
1.672e-008,-93.002647,111.77085
1.673e-008,-93.042336,128.12225
1.674e-008,-93.082878,144.46245
1.675e-008,-93.124626,160.78838
1.676e-008,-93.167946,177.09732
1.677e-008,-93.213211,-166.61375
1.678e-008,-93.260872,-150.34691
1.679e-008,-93.311256,-134.10455
1.68e-008,-93.364845,-117.88866
1.681e-008,-93.421974,-101.70126
1.682e-008,-93.483101,-85.54393
1.683e-008,-93.548538,-69.418129
1.684e-008,-93.618713,-53.325401
1.685e-008,-93.69397,-37.2668
1.686e-008,-93.774628,-21.243668
1.687e-008,-93.86097,-5.256793
1.688e-008,-93.953331,10.692761
1.689e-008,-94.051941,26.604183
1.69e-008,-94.157036,42.476757
1.691e-008,-94.268799,58.309631
1.692e-008,-94.387421,74.102295
1.693e-008,-94.512985,89.853821
1.694e-008,-94.645638,105.56374
1.695e-008,-94.785393,121.23157
1.696e-008,-94.932327,136.85654
1.697e-008,-95.086327,152.43806
1.698e-008,-95.247444,167.97575
1.699e-008,-95.415451,-176.53104
1.7e-008,-95.590279,-161.08273
1.701e-008,-95.771713,-145.67975
1.702e-008,-95.959496,-130.32249
1.703e-008,-96.153275,-115.01107
1.704e-008,-96.352814,-99.745842
1.705e-008,-96.55761,-84.526588
1.706e-008,-96.767265,-69.353401
1.707e-008,-96.981255,-54.225552
1.708e-008,-97.199043,-39.142834
1.709e-008,-97.419998,-24.103886
1.71e-008,-97.643486,-9.1081457
1.711e-008,-97.868805,5.8465095
1.712e-008,-98.095284,20.76193
1.713e-008,-98.322083,35.64035
1.714e-008,-98.5485,50.484791
1.715e-008,-98.773674,65.29847
1.716e-008,-98.996918,80.085159
1.717e-008,-99.217422,94.84922
1.718e-008,-99.434334,109.59499
1.719e-008,-99.647057,124.32801
1.72e-008,-99.854836,139.05318
1.721e-008,-100.05713,153.77663
1.722e-008,-100.25332,168.50375
1.723e-008,-100.443,-176.75893
1.724e-008,-100.62567,-162.00589
1.725e-008,-100.80112,-147.23097
1.726e-008,-100.96904,-132.42929
1.727e-008,-101.12932,-117.59483
1.728e-008,-101.28179,-102.72393
1.729e-008,-101.42658,-87.811676
1.73e-008,-101.56367,-72.855202
1.731e-008,-101.69309,-57.851158
1.732e-008,-101.81513,-42.798214
1.733e-008,-101.9299,-27.695303
1.734e-008,-102.03754,-12.541596
1.735e-008,-102.13839,2.6623404
1.736e-008,-102.23269,17.914759
1.737e-008,-102.32062,33.214611
1.738e-008,-102.40245,48.55862
1.739e-008,-102.47858,63.943718
1.74e-008,-102.54901,79.366135
1.741e-008,-102.61422,94.822037
1.742e-008,-102.67442,110.30634
1.743e-008,-102.72996,125.81513
1.744e-008,-102.78091,141.34293
1.745e-008,-102.82775,156.88434
1.746e-008,-102.87059,172.4353
1.747e-008,-102.90982,-172.00995
1.748e-008,-102.94566,-156.45558
1.749e-008,-102.97842,-140.90685
1.75e-008,-103.00835,-125.36707
1.751e-008,-103.03572,-109.84041
1.752e-008,-103.06075,-94.330734
1.753e-008,-103.08377,-78.840469
1.754e-008,-103.10503,-63.372334
1.755e-008,-103.12471,-47.928341
1.756e-008,-103.14313,-32.510151
1.757e-008,-103.16055,-17.118742
1.758e-008,-103.17715,-1.7541898
1.759e-008,-103.19322,13.583567
1.76e-008,-103.20895,28.894976
1.761e-008,-103.22472,44.180992
1.762e-008,-103.24061,59.443432
1.763e-008,-103.25709,74.683983
1.764e-008,-103.27438,89.905342
1.765e-008,-103.29279,105.10966
1.766e-008,-103.31271,120.30078
1.767e-008,-103.33459,135.48123
1.768e-008,-103.35871,150.65469
1.769e-008,-103.38566,165.82497
1.77e-008,-103.41583,-179.00449
1.771e-008,-103.44987,-163.83005
1.772e-008,-103.48832,-148.64746
1.773e-008,-103.53178,-133.45314
1.774e-008,-103.58093,-118.24354
1.775e-008,-103.63652,-103.01498
1.776e-008,-103.6993,-87.763504
1.777e-008,-103.76996,-72.486443
1.778e-008,-103.8494,-57.180004
1.779e-008,-103.93846,-41.841587
1.78e-008,-104.03812,-26.46734
1.781e-008,-104.14919,-11.054761
1.782e-008,-104.27278,4.3989196
1.783e-008,-104.40993,19.896338
1.784e-008,-104.5617,35.440941
1.785e-008,-104.72925,51.035473
1.786e-008,-104.91376,66.682251
1.787e-008,-105.11655,82.384918
1.788e-008,-105.3391,98.146736
1.789e-008,-105.58282,113.97116
1.79e-008,-105.84933,129.86324
1.791e-008,-106.14051,145.82693
1.792e-008,-106.45832,161.86905
1.793e-008,-106.80496,177.99568
1.794e-008,-107.18283,-165.78415
1.795e-008,-107.59481,-149.46013
1.796e-008,-108.04413,-133.01971
1.797e-008,-108.53454,-116.44588
1.798e-008,-109.07026,-99.717239
1.799e-008,-109.65629,-82.807297
1.8e-008,-110.2985,-65.676781
1.801e-008,-111.00405,-48.278606
1.802e-008,-111.78075,-30.542881
1.803e-008,-112.6379,-12.374153
1.804e-008,-113.58592,6.3637366
1.805e-008,-114.63464,25.872673
1.806e-008,-115.79045,46.451042
1.807e-008,-117.04845,68.537231
1.808e-008,-118.37167,92.75843
1.809e-008,-119.65223,119.86787
1.81e-008,-120.66006,150.32907
1.811e-008,-121.076,-176.67204
1.812e-008,-120.7317,-143.66158
1.813e-008,-119.79649,-113.1619
1.814e-008,-118.5896,-85.978989
1.815e-008,-117.3408,-61.648521
1.816e-008,-116.1567,-39.417137
1.817e-008,-115.07463,-18.660711
1.818e-008,-114.09948,1.0579058
1.819e-008,-113.22451,20.037626
1.82e-008,-112.44,38.476212
1.821e-008,-111.73564,56.508972
1.822e-008,-111.10193,74.229584
1.823e-008,-110.53119,91.705338
1.824e-008,-110.01631,108.98279
1.825e-008,-109.55146,126.09688
1.826e-008,-109.13167,143.07127
1.827e-008,-108.75287,159.92532
1.828e-008,-108.41132,176.6714
1.829e-008,-108.10394,-166.6806
1.83e-008,-107.82806,-150.12453
1.831e-008,-107.58144,-133.65652
1.832e-008,-107.36183,-117.27377
1.833e-008,-107.16751,-100.97598
1.834e-008,-106.99676,-84.764473
1.835e-008,-106.84818,-68.640358
1.836e-008,-106.72034,-52.607071
1.837e-008,-106.61192,-36.667885
1.838e-008,-106.52157,-20.82732
1.839e-008,-106.44822,-5.0906849
1.84e-008,-106.39056,10.536302
1.841e-008,-106.34718,26.047579
1.842e-008,-106.3168,41.436443
1.843e-008,-106.29798,56.695412
1.844e-008,-106.28911,71.818169
1.845e-008,-106.28844,86.7976
1.846e-008,-106.29396,101.62749
1.847e-008,-106.30364,116.3012
1.848e-008,-106.315,130.81549
1.849e-008,-106.32551,145.16608
1.85e-008,-106.33218,159.35265
1.851e-008,-106.33236,173.37605
1.852e-008,-106.32264,-172.75897
1.853e-008,-106.30002,-159.04413
1.854e-008,-106.26147,-145.46721
1.855e-008,-106.20429,-132.01283
1.856e-008,-106.12597,-118.66108
1.857e-008,-106.02467,-105.38941
1.858e-008,-105.89915,-92.172157
1.859e-008,-105.74886,-78.983398
1.86e-008,-105.57408,-65.795952
1.861e-008,-105.37575,-52.585136
1.862e-008,-105.15561,-39.326229
1.863e-008,-104.9157,-25.999121
1.864e-008,-104.65873,-12.586724
1.865e-008,-104.38756,0.92373145
1.866e-008,-104.10507,14.54239
1.867e-008,-103.81422,28.273945
1.868e-008,-103.51778,42.122276
1.869e-008,-103.21843,56.086452
1.87e-008,-102.91856,70.164619
1.871e-008,-102.62025,84.352974
1.872e-008,-102.32545,98.646545
1.873e-008,-102.03567,113.03935
1.874e-008,-101.75232,127.52538
1.875e-008,-101.47652,142.09801
1.876e-008,-101.20924,156.75023
1.877e-008,-100.95119,171.47644
1.878e-008,-100.70303,-173.73024
1.879e-008,-100.46511,-158.87553
1.88e-008,-100.23794,-143.96523
1.881e-008,-100.02164,-129.00423
1.882e-008,-99.816483,-113.9976
1.883e-008,-99.622452,-98.949829
1.884e-008,-99.439636,-83.864929
1.885e-008,-99.268051,-68.74659
1.886e-008,-99.107605,-53.598412
1.887e-008,-98.958191,-38.423183
1.888e-008,-98.819717,-23.223862
1.889e-008,-98.692009,-8.0025702
1.89e-008,-98.574913,7.2381549
1.891e-008,-98.468231,22.496904
1.892e-008,-98.371773,37.771683
1.893e-008,-98.285316,53.061447
1.894e-008,-98.208633,68.364677
1.895e-008,-98.141541,83.681152
1.896e-008,-98.083755,99.00956
1.897e-008,-98.035049,114.34988
1.898e-008,-97.995216,129.70137
1.899e-008,-97.963997,145.06462
1.9e-008,-97.941139,160.43938
1.901e-008,-97.926445,175.82579
1.902e-008,-97.91964,-168.77528
1.903e-008,-97.920532,-153.36343
1.904e-008,-97.928886,-137.93777
1.905e-008,-97.944481,-122.49741
1.906e-008,-97.967125,-107.04137
1.907e-008,-97.996613,-91.568321
1.908e-008,-98.032738,-76.076805
1.909e-008,-98.075371,-60.565609
1.91e-008,-98.124283,-45.033081
1.911e-008,-98.17939,-29.477655
1.912e-008,-98.24044,-13.897386
1.913e-008,-98.307404,1.7093059
1.914e-008,-98.380081,17.344006
1.915e-008,-98.458427,33.009109
1.916e-008,-98.542297,48.706223
1.917e-008,-98.631622,64.437286
1.918e-008,-98.726311,80.203979
1.919e-008,-98.826324,96.008522
1.92e-008,-98.931595,111.85263
1.921e-008,-99.042076,127.73812
1.922e-008,-99.1577,143.66675
1.923e-008,-99.278488,159.64006
1.924e-008,-99.404404,175.65988
1.925e-008,-99.535446,-168.27242
1.926e-008,-99.671577,-152.15541
1.927e-008,-99.812836,-135.9882
1.928e-008,-99.959206,-119.76909
1.929e-008,-100.11076,-103.49727
1.93e-008,-100.26746,-87.171829
1.931e-008,-100.42942,-70.792305
1.932e-008,-100.59668,-54.357853
1.933e-008,-100.76929,-37.868027
1.934e-008,-100.94736,-21.322733
1.935e-008,-101.13103,-4.7216234
1.936e-008,-101.32045,11.935101
1.937e-008,-101.51575,28.647766
1.938e-008,-101.71719,45.416016
1.939e-008,-101.92497,62.239491
1.94e-008,-102.13947,79.117752
1.941e-008,-102.36099,96.051224
1.942e-008,-102.58992,113.03939
1.943e-008,-102.82674,130.08159
1.944e-008,-103.07209,147.17882
1.945e-008,-103.32653,164.33078
1.946e-008,-103.59078,-178.46103
1.947e-008,-103.86572,-161.19656
1.948e-008,-104.15218,-143.87323
1.949e-008,-104.45137,-126.48867
1.95e-008,-104.76436,-109.03927
1.951e-008,-105.09241,-91.520378
1.952e-008,-105.43711,-73.926697
1.953e-008,-105.8,-56.248806
1.954e-008,-106.18297,-38.478252
1.955e-008,-106.58786,-20.601046
1.956e-008,-107.01693,-2.6010408
1.957e-008,-107.4725,15.543593
1.958e-008,-107.95684,33.8578
1.959e-008,-108.4724,52.376965
1.96e-008,-109.02191,71.143257
1.961e-008,-109.60715,90.212463
1.962e-008,-110.22951,109.65582
1.963e-008,-110.88834,129.56219
1.964e-008,-111.5808,150.04442
1.965e-008,-112.29849,171.24252
1.966e-008,-113.02486,-166.685
1.967e-008,-113.73065,-143.57503
1.968e-008,-114.36964,-119.29767
1.969e-008,-114.87778,-93.846466
1.97e-008,-115.18307,-67.428085
1.971e-008,-115.22775,-40.512829
1.972e-008,-114.99567,-13.740331
1.973e-008,-114.52218,12.293203
1.974e-008,-113.87309,37.21447
1.975e-008,-113.11993,60.905636
1.976e-008,-112.3214,83.435883
1.977e-008,-111.51708,104.95417
1.978e-008,-110.73087,125.62653
1.979e-008,-109.9763,145.60437
1.98e-008,-109.25968,165.0204
1.981e-008,-108.58344,-176.01945
1.982e-008,-107.94727,-157.43019
1.983e-008,-107.35007,-139.14905
1.984e-008,-106.78993,-121.12136
1.985e-008,-106.26456,-103.30571
1.986e-008,-105.77185,-85.668167
1.987e-008,-105.30964,-68.18261
1.988e-008,-104.87578,-50.826496
1.989e-008,-104.46866,-33.580647
1.99e-008,-104.08631,-16.431892
1.991e-008,-103.72735,0.63316625
1.992e-008,-103.39015,17.625648
1.993e-008,-103.07358,34.553196
1.994e-008,-102.77631,51.424053
1.995e-008,-102.49728,68.245399
1.996e-008,-102.2355,85.022659
1.997e-008,-101.99008,101.76035
1.998e-008,-101.76006,118.46381
1.999e-008,-101.54472,135.13632
2e-008,-101.34335,151.78151
END

