!CSV A.01.01
!Keysight Technologies,N5227B,US58420762,A.13.80.08
!Date: Monday, November 20, 2023 14:52:16
!Source: Standard

BEGIN CH1_DATA
Freq(Hz),S21(DB),S21(DEG)
3000000000,-56.258247,-119.65517
3003000000,-56.132694,-135.9913
3006000000,-55.926319,-152.59973
3009000000,-55.951466,-170.42503
3012000000,-56.009636,173.65956
3015000000,-55.976231,156.29366
3018000000,-56.011257,141.58661
3021000000,-56.021202,125.29799
3024000000,-55.809711,108.81706
3027000000,-55.705662,91.649483
3030000000,-55.593292,74.760475
3033000000,-55.779213,57.8321
3036000000,-55.760159,42.384937
3039000000,-55.836704,25.32444
3042000000,-55.42519,9.3082724
3045000000,-55.407173,-7.7967257
3048000000,-55.392044,-25.411264
3051000000,-55.32201,-43.103386
3054000000,-55.518471,-59.666935
3057000000,-55.475975,-76.531311
3060000000,-55.550262,-92.225861
3063000000,-55.763985,-108.68551
3066000000,-55.683678,-125.03912
3069000000,-55.744102,-142.27513
3072000000,-55.647396,-157.3551
3075000000,-55.74316,-175.13959
3078000000,-55.842869,168.47498
3081000000,-55.886292,152.01376
3084000000,-55.787506,136.96162
3087000000,-55.832226,119.18016
3090000000,-55.805737,103.20786
3093000000,-55.898407,85.722618
3096000000,-56.053219,69.515579
3099000000,-56.025856,53.668385
3102000000,-56.075966,37.719292
3105000000,-56.04126,20.988035
3108000000,-56.031078,4.5353279
3111000000,-56.266029,-13.079941
3114000000,-56.347515,-28.722383
3117000000,-56.300583,-43.781937
3120000000,-56.416466,-59.051788
3123000000,-56.314983,-75.032974
3126000000,-56.278358,-91.11927
3129000000,-56.357742,-107.48643
3132000000,-56.374428,-122.94782
3135000000,-56.159397,-139.265
3138000000,-56.221874,-154.96043
3141000000,-56.012775,-170.64879
3144000000,-55.817722,172.20737
3147000000,-55.849796,155.38229
3150000000,-56.010147,137.82866
3153000000,-55.826565,122.01473
3156000000,-55.727943,105.8683
3159000000,-55.697075,89.270714
3162000000,-55.651531,72.17012
3165000000,-55.658546,55.802334
3168000000,-55.636631,39.481483
3171000000,-55.613857,22.477016
3174000000,-55.702057,5.2892084
3177000000,-55.623222,-11.110166
3180000000,-55.72715,-27.415865
3183000000,-55.818977,-44.195351
3186000000,-55.762604,-61.168442
3189000000,-55.909866,-77.246719
3192000000,-55.998707,-93.111809
3195000000,-56.2197,-109.22642
3198000000,-56.165062,-124.46873
3201000000,-56.008511,-139.91553
3204000000,-55.865131,-156.1286
3207000000,-55.81197,-173.28789
3210000000,-55.770107,170.55486
3213000000,-55.80109,154.59215
3216000000,-55.694138,138.13474
3219000000,-55.662819,120.00275
3222000000,-55.683815,103.49781
3225000000,-55.726074,86.735107
3228000000,-55.855358,70.454048
3231000000,-55.744892,53.63929
3234000000,-55.855404,37.723862
3237000000,-55.656422,21.142605
3240000000,-55.829681,2.9537554
3243000000,-55.93309,-13.10574
3246000000,-56.056953,-29.276121
3249000000,-56.216583,-44.650326
3252000000,-56.241112,-60.623878
3255000000,-56.402027,-76.014008
3258000000,-56.406769,-91.239746
3261000000,-56.21106,-107.28069
3264000000,-55.987614,-122.46763
3267000000,-55.902393,-138.68498
3270000000,-55.826931,-155.74017
3273000000,-55.82613,-172.40157
3276000000,-55.882282,171.78671
3279000000,-55.843666,156.13506
3282000000,-55.859867,139.2462
3285000000,-55.562145,123.63583
3288000000,-55.588593,106.77499
3291000000,-55.38755,88.812965
3294000000,-55.426113,71.768776
3297000000,-55.554207,54.474258
3300000000,-55.664303,38.395023
3303000000,-55.596832,22.190691
3306000000,-55.610275,7.2338843
3309000000,-55.614021,-10.651394
3312000000,-55.738731,-27.262352
3315000000,-55.638496,-42.702526
3318000000,-55.596821,-60.35957
3321000000,-55.686069,-77.053001
3324000000,-55.722862,-94.56469
3327000000,-55.854671,-109.89706
3330000000,-55.907497,-125.38721
3333000000,-55.987888,-139.95349
3336000000,-55.815903,-155.84833
3339000000,-55.653187,-172.24435
3342000000,-55.493324,171.86864
3345000000,-55.231441,153.39381
3348000000,-55.259491,135.39838
3351000000,-55.360527,116.88789
3354000000,-55.846703,100.9165
3357000000,-55.878349,85.680817
3360000000,-56.072334,70.17778
3363000000,-55.92094,55.318756
3366000000,-55.749489,39.44479
3369000000,-55.468449,21.289497
3372000000,-55.816711,3.0769827
3375000000,-56.210667,-14.003951
3378000000,-56.595325,-27.365622
3381000000,-56.475067,-41.8857
3384000000,-56.276821,-56.117924
3387000000,-56.197857,-71.433945
3390000000,-55.968849,-87.480667
3393000000,-55.710793,-103.75298
3396000000,-55.473984,-121.4394
3399000000,-55.366081,-138.1292
3402000000,-55.336262,-153.99306
3405000000,-55.282639,-171.44125
3408000000,-55.336304,171.39568
3411000000,-55.328426,156.14983
3414000000,-55.011028,140.21877
3417000000,-55.025578,121.62056
3420000000,-54.916435,104.56655
3423000000,-54.821056,87.593964
3426000000,-54.979237,70.07
3429000000,-55.140514,51.914524
3432000000,-55.491318,35.588898
3435000000,-55.607376,20.358282
3438000000,-55.856102,5.2820306
3441000000,-55.696205,-9.5090609
3444000000,-55.425373,-25.714981
3447000000,-55.142487,-41.675682
3450000000,-55.039555,-59.967197
3453000000,-55.169018,-77.713943
3456000000,-55.455021,-94.924728
3459000000,-55.527397,-110.45905
3462000000,-55.617077,-125.84029
3465000000,-55.453587,-141.61322
3468000000,-55.579418,-157.48459
3471000000,-55.306721,-174.73767
3474000000,-55.242611,167.64931
3477000000,-55.37112,150.96495
3480000000,-55.468842,133.29236
3483000000,-55.788826,116.60374
3486000000,-55.743637,101.88886
3489000000,-55.957867,87.709503
3492000000,-55.8316,73.165947
3495000000,-55.83979,55.579956
3498000000,-55.555927,39.847668
3501000000,-55.572884,22.61882
3504000000,-55.581055,6.9376631
3507000000,-55.564434,-9.1678314
3510000000,-55.584,-26.020475
3513000000,-55.423191,-40.307293
3516000000,-55.341564,-56.968365
3519000000,-55.163879,-74.123184
3522000000,-55.03923,-91.137856
3525000000,-54.988655,-107.74285
3528000000,-54.969952,-125.58024
3531000000,-55.052208,-143.01027
3534000000,-55.09787,-159.58151
3537000000,-54.93074,-175.69685
3540000000,-55.1479,168.26334
3543000000,-55.206936,151.60968
3546000000,-55.069878,134.60384
3549000000,-55.271816,118.5132
3552000000,-55.204807,101.92686
3555000000,-55.182018,84.917717
3558000000,-55.364471,68.584167
3561000000,-55.205982,52.638378
3564000000,-55.087296,35.722301
3567000000,-55.041622,19.622505
3570000000,-55.166771,2.6231692
3573000000,-55.367004,-13.97222
3576000000,-55.294159,-30.531731
3579000000,-55.37178,-47.40596
3582000000,-55.507595,-63.211502
3585000000,-55.539955,-79.35022
3588000000,-55.64325,-95.225967
3591000000,-55.437,-111.58539
3594000000,-55.644447,-127.81474
3597000000,-55.496574,-145.03169
3600000000,-55.610119,-160.13385
3603000000,-55.728107,-176.40155
3606000000,-55.704704,167.69598
3609000000,-55.623741,152.66458
3612000000,-55.671711,136.43121
3615000000,-55.295872,119.0274
3618000000,-55.554096,103.03239
3621000000,-55.339626,87.08358
3624000000,-55.398994,70.384567
3627000000,-55.193562,54.6213
3630000000,-55.33662,36.952702
3633000000,-55.139587,21.292809
3636000000,-55.25016,4.4369431
3639000000,-55.219982,-12.335467
3642000000,-55.058632,-28.068556
3645000000,-54.950806,-46.076283
3648000000,-55.035572,-63.357838
3651000000,-55.152908,-80.413872
3654000000,-55.284142,-97.011513
3657000000,-55.418228,-112.27657
3660000000,-55.352283,-127.86867
3663000000,-55.341705,-144.75038
3666000000,-55.2076,-161.68219
3669000000,-55.227619,-177.73041
3672000000,-55.335648,164.6671
3675000000,-55.351589,147.92534
3678000000,-55.618065,130.72148
3681000000,-55.813046,116.01863
3684000000,-55.589848,100.82082
3687000000,-55.793488,86.265182
3690000000,-55.531872,69.106827
3693000000,-55.402828,51.270119
3696000000,-55.371174,35.281559
3699000000,-55.417091,18.221043
3702000000,-55.405987,1.8662817
3705000000,-55.646969,-14.605955
3708000000,-55.757511,-29.375395
3711000000,-55.602207,-45.440208
3714000000,-55.536957,-62.087402
3717000000,-55.334484,-77.418976
3720000000,-55.098816,-96.082352
3723000000,-55.106052,-113.5778
3726000000,-55.179344,-131.10518
3729000000,-55.432686,-147.19856
3732000000,-55.723419,-164.33183
3735000000,-56.012978,-178.36411
3738000000,-55.966335,167.05099
3741000000,-55.644497,150.82791
3744000000,-55.43428,134.89166
3747000000,-55.574322,116.35497
3750000000,-55.648434,98.720322
3753000000,-55.889805,82.665695
3756000000,-55.8815,68.746109
3759000000,-55.813728,53.831337
3762000000,-55.908783,37.963749
3765000000,-55.483223,21.49725
3768000000,-55.489342,5.7217336
3771000000,-55.22295,-10.838792
3774000000,-54.991341,-28.385071
3777000000,-55.121967,-46.601376
3780000000,-55.128952,-64.27401
3783000000,-55.37756,-80.8955
3786000000,-55.476528,-96.909012
3789000000,-55.393311,-112.5766
3792000000,-55.311043,-128.98524
3795000000,-55.487167,-144.32884
3798000000,-55.287521,-161.25981
3801000000,-55.356167,-178.94272
3804000000,-55.348152,164.10443
3807000000,-55.709896,147.53267
3810000000,-55.707447,132.50328
3813000000,-55.693081,116.42403
3816000000,-55.732594,101.75377
3819000000,-55.382793,84.454201
3822000000,-55.387718,67.290741
3825000000,-55.347637,50.186779
3828000000,-55.559872,33.152649
3831000000,-55.488232,17.272848
3834000000,-55.581177,0.38107327
3837000000,-55.608662,-15.281096
3840000000,-55.570179,-30.685295
3843000000,-55.706379,-47.922104
3846000000,-55.654469,-63.808624
3849000000,-55.715496,-79.951263
3852000000,-55.432213,-95.380096
3855000000,-55.380657,-113.36945
3858000000,-55.549232,-129.48708
3861000000,-55.464523,-146.97038
3864000000,-55.64069,-163.22882
3867000000,-55.590179,-178.85243
3870000000,-55.906239,166.1877
3873000000,-55.618637,149.47653
3876000000,-55.398258,133.74513
3879000000,-55.319363,117.01921
3882000000,-55.477413,99.091354
3885000000,-55.458767,83.080307
3888000000,-55.6604,66.341858
3891000000,-55.744377,50.652336
3894000000,-55.611225,33.603226
3897000000,-55.590218,18.624134
3900000000,-55.611382,3.5481772
3903000000,-55.408722,-13.523664
3906000000,-55.262531,-31.982016
3909000000,-55.266113,-48.739033
3912000000,-55.282745,-64.577316
3915000000,-55.419239,-81.774445
3918000000,-55.554569,-97.158524
3921000000,-55.250599,-113.15318
3924000000,-55.339996,-130.06401
3927000000,-55.220566,-146.86401
3930000000,-55.297623,-164.58415
3933000000,-55.416172,-179.42641
3936000000,-55.498005,163.64864
3939000000,-55.511211,147.75449
3942000000,-55.529602,129.10094
3945000000,-55.523785,113.30378
3948000000,-55.68718,97.070595
3951000000,-55.576874,81.50882
3954000000,-55.543385,66.229324
3957000000,-55.521164,49.157925
3960000000,-55.46423,32.317047
3963000000,-55.521,14.919075
3966000000,-55.448166,-0.49628699
3969000000,-55.675255,-17.757084
3972000000,-55.649956,-34.138489
3975000000,-55.685104,-49.723385
3978000000,-55.769421,-66.532242
3981000000,-55.703133,-82.313118
3984000000,-55.556629,-98.448822
3987000000,-55.631481,-115.11469
3990000000,-55.600899,-132.74345
3993000000,-55.581577,-148.56303
3996000000,-55.644943,-165.29651
3999000000,-55.902451,178.35405
4002000000,-55.854374,162.96591
4005000000,-55.972958,147.48007
4008000000,-55.853931,131.29807
4011000000,-55.595917,116.26419
4014000000,-55.534607,99.394745
4017000000,-55.511078,81.910965
4020000000,-55.570969,65.061226
4023000000,-55.661736,48.375607
4026000000,-55.469696,32.301392
4029000000,-55.530354,16.054083
4032000000,-55.366161,-0.095426865
4035000000,-55.335415,-17.220926
4038000000,-55.187981,-34.677124
4041000000,-55.315411,-52.060905
4044000000,-55.539738,-67.871361
4047000000,-55.576839,-86.24955
4050000000,-55.513222,-101.09043
4053000000,-55.506165,-118.56095
4056000000,-55.632923,-133.71605
4059000000,-55.689819,-150.12627
4062000000,-55.769276,-166.45508
4065000000,-55.632828,175.97148
4068000000,-55.852364,160.36101
4071000000,-55.607082,143.74971
4074000000,-55.84824,126.69217
4077000000,-55.800209,111.61765
4080000000,-56.13805,93.899696
4083000000,-55.853489,78.659889
4086000000,-55.649189,63.105465
4089000000,-55.765526,46.818428
4092000000,-55.780441,29.152443
4095000000,-55.705898,12.601648
4098000000,-55.821568,-2.7330246
4101000000,-55.71999,-19.143896
4104000000,-55.896294,-37.475861
4107000000,-55.896336,-52.181606
4110000000,-55.806633,-68.982277
4113000000,-56.110203,-86.217537
4116000000,-55.990669,-100.79044
4119000000,-56.022465,-117.20008
4122000000,-55.802658,-134.2025
4125000000,-55.809875,-151.63696
4128000000,-55.745247,-167.90184
4131000000,-56.002663,175.34415
4134000000,-56.007423,159.72437
4137000000,-55.966618,145.21834
4140000000,-56.093567,128.87709
4143000000,-55.850559,113.82661
4146000000,-55.731262,96.660431
4149000000,-55.741859,78.606094
4152000000,-55.768784,62.528217
4155000000,-55.746162,44.688709
4158000000,-55.810055,28.227047
4161000000,-56.130444,10.92613
4164000000,-56.000511,-5.3265743
4167000000,-55.904766,-21.040812
4170000000,-55.999596,-37.745548
4173000000,-56.06525,-53.743694
4176000000,-56.234966,-68.954529
4179000000,-56.14193,-85.623894
4182000000,-56.054573,-101.6242
4185000000,-55.807846,-118.18746
4188000000,-55.897717,-136.28802
4191000000,-56.044106,-151.58801
4194000000,-56.026039,-169.22523
4197000000,-56.129421,175.54352
4200000000,-55.84074,160.18837
4203000000,-55.904652,143.80145
4206000000,-55.826023,126.64807
4209000000,-55.881687,109.79389
4212000000,-55.805756,93.350945
4215000000,-55.780968,75.558708
4218000000,-55.815414,59.164097
4221000000,-55.898083,43.217255
4224000000,-56.004467,26.686663
4227000000,-56.120659,9.3373241
4230000000,-55.891674,-6.6973877
4233000000,-55.95747,-23.117907
4236000000,-56.076107,-41.460266
4239000000,-56.17205,-58.064373
4242000000,-56.228687,-74.017029
4245000000,-56.573799,-88.069221
4248000000,-56.355404,-103.08588
4251000000,-56.244011,-119.58736
4254000000,-56.098957,-137.04996
4257000000,-56.009922,-154.72508
4260000000,-56.151421,-170.32382
4263000000,-56.145969,173.37587
4266000000,-56.31073,158.10161
4269000000,-56.400661,141.21336
4272000000,-56.261513,125.35365
4275000000,-56.308743,107.82262
4278000000,-56.15477,92.500626
4281000000,-56.111797,75.38884
4284000000,-56.057709,58.342228
4287000000,-56.262699,41.682026
4290000000,-56.257729,26.108231
4293000000,-56.172951,8.998867
4296000000,-56.140797,-8.4005041
4299000000,-56.308628,-24.471071
4302000000,-56.223328,-40.232307
4305000000,-56.366577,-57.669857
4308000000,-56.385056,-75.84494
4311000000,-56.487404,-90.511719
4314000000,-56.599201,-106.80184
4317000000,-56.679939,-123.12193
4320000000,-56.806396,-138.66185
4323000000,-56.691345,-154.56924
4326000000,-56.639847,-170.04593
4329000000,-56.40662,174.54134
4332000000,-56.251812,157.61095
4335000000,-56.233524,140.97993
4338000000,-56.068508,124.06676
4341000000,-56.348072,108.14529
4344000000,-56.196861,91.180008
4347000000,-56.276291,72.74762
4350000000,-56.374214,55.129932
4353000000,-56.445797,38.568665
4356000000,-56.535114,23.460239
4359000000,-56.714684,7.8163924
4362000000,-56.323101,-8.4602365
4365000000,-56.503666,-24.620354
4368000000,-56.642971,-42.609245
4371000000,-56.560547,-60.048504
4374000000,-56.901394,-76.424652
4377000000,-56.835083,-89.87175
4380000000,-56.690281,-106.06651
4383000000,-56.61021,-122.8416
4386000000,-56.703682,-139.20335
4389000000,-56.71167,-155.64737
4392000000,-56.494949,-171.96996
4395000000,-56.487034,170.73064
4398000000,-56.606068,155.07684
4401000000,-56.346413,137.13116
4404000000,-56.344162,122.07098
4407000000,-56.43092,103.37619
4410000000,-56.675438,88.653358
4413000000,-56.584263,70.970535
4416000000,-56.300934,54.126762
4419000000,-56.421013,37.585972
4422000000,-56.571419,22.313765
4425000000,-56.570541,4.212605
4428000000,-56.6903,-12.02187
4431000000,-56.884529,-29.560997
4434000000,-56.913754,-46.728439
4437000000,-56.886913,-62.371014
4440000000,-57.391041,-77.64859
4443000000,-57.073956,-94.207306
4446000000,-57.103878,-108.90472
4449000000,-57.004822,-124.73808
4452000000,-56.917282,-141.58032
4455000000,-57.276096,-157.84804
4458000000,-57.205925,-175.67696
4461000000,-56.972988,168.45131
4464000000,-57.016777,152.61359
4467000000,-57.215538,135.53757
4470000000,-57.313332,120.28608
4473000000,-57.264793,104.15553
4476000000,-57.204544,88.375496
4479000000,-57.032505,70.789284
4482000000,-56.978939,54.209007
4485000000,-57.160679,37.604645
4488000000,-57.432915,22.032148
4491000000,-57.193771,4.6387038
4494000000,-57.320835,-10.745952
4497000000,-57.368778,-26.793793
4500000000,-57.301651,-43.280289
4503000000,-57.384285,-58.804516
4506000000,-57.48838,-75.220589
4509000000,-57.356319,-90.954811
4512000000,-57.260212,-107.6578
4515000000,-57.260376,-124.69359
4518000000,-57.180065,-141.11354
4521000000,-57.000858,-157.8992
4524000000,-56.940189,-175.3535
4527000000,-57.029301,167.83722
4530000000,-57.437912,152.33792
4533000000,-57.299129,134.99776
4536000000,-57.363895,119.28403
4539000000,-57.095448,104.08856
4542000000,-57.060806,86.612411
4545000000,-57.078667,68.641556
4548000000,-57.294098,52.084682
4551000000,-57.432556,35.979183
4554000000,-57.173634,17.983753
4557000000,-57.42197,3.3357122
4560000000,-57.323467,-13.498544
4563000000,-57.178574,-29.808483
4566000000,-57.284363,-47.351952
4569000000,-57.447079,-63.294209
4572000000,-57.398205,-79.860764
4575000000,-57.574234,-96.078766
4578000000,-57.601166,-112.76152
4581000000,-57.771481,-129.06493
4584000000,-57.662544,-144.17502
4587000000,-57.461128,-160.6916
4590000000,-57.379803,-176.80812
4593000000,-57.642445,165.62396
4596000000,-57.537609,148.9381
4599000000,-57.838978,132.24841
4602000000,-58.04678,116.83126
4605000000,-57.894032,99.930283
4608000000,-57.857693,86.042183
4611000000,-57.798752,69.207642
4614000000,-57.558662,53.213177
4617000000,-57.864311,36.600361
4620000000,-57.767281,20.985687
4623000000,-58.197041,4.3199716
4626000000,-57.696793,-11.087692
4629000000,-57.815891,-29.130945
4632000000,-57.586914,-46.039143
4635000000,-57.856304,-62.486439
4638000000,-57.888615,-79.109596
4641000000,-57.899883,-96.083984
4644000000,-57.90881,-110.63365
4647000000,-57.529552,-125.94876
4650000000,-58.031193,-142.76344
4653000000,-57.795273,-161.20444
4656000000,-57.735069,179.91225
4659000000,-58.048298,165.80338
4662000000,-58.099934,150.51382
4665000000,-58.055748,134.39026
4668000000,-58.208389,117.38814
4671000000,-57.812321,101.98299
4674000000,-57.840446,84.450623
4677000000,-57.909248,69.020195
4680000000,-57.761002,51.822105
4683000000,-58.000294,34.33548
4686000000,-58.231503,18.691755
4689000000,-58.167625,1.6365354
4692000000,-58.226814,-12.903421
4695000000,-58.191994,-29.189917
4698000000,-58.171227,-47.343803
4701000000,-58.362144,-61.617241
4704000000,-58.003719,-78.342377
4707000000,-58.171516,-96.619759
4710000000,-58.166077,-112.58503
4713000000,-58.329689,-128.63263
4716000000,-58.374844,-143.05428
4719000000,-58.267464,-159.98557
4722000000,-58.177868,-173.59775
4725000000,-58.046421,169.19215
4728000000,-57.968388,151.1308
4731000000,-57.978477,133.69109
4734000000,-58.063801,115.54768
4737000000,-58.002682,100.72673
4740000000,-58.295738,83.533836
4743000000,-58.62978,68.127052
4746000000,-58.354431,51.8909
4749000000,-58.540539,37.635136
4752000000,-58.503738,20.131626
4755000000,-58.169292,5.3375325
4758000000,-58.240524,-13.139876
4761000000,-58.299637,-30.781408
4764000000,-58.322258,-46.476082
4767000000,-58.287231,-60.738361
4770000000,-58.283962,-76.539688
4773000000,-58.016937,-93.262924
4776000000,-58.441723,-109.57506
4779000000,-58.291229,-125.8
4782000000,-58.064545,-143.07846
4785000000,-58.140209,-161.92938
4788000000,-57.939926,-176.6239
4791000000,-58.12397,164.82501
4794000000,-58.324123,149.64435
4797000000,-58.0098,129.99937
4800000000,-58.373867,116.27105
4803000000,-58.027248,100.16064
4806000000,-58.2841,81.859886
4809000000,-58.394459,64.363167
4812000000,-58.633106,51.079109
4815000000,-58.529205,34.482979
4818000000,-58.490665,17.871071
4821000000,-58.474918,1.5751435
4824000000,-58.533363,-15.103944
4827000000,-58.695934,-30.394793
4830000000,-58.632771,-46.681976
4833000000,-58.887779,-62.707378
4836000000,-58.553814,-77.931076
4839000000,-58.478893,-94.474106
4842000000,-58.438892,-111.25988
4845000000,-58.181889,-129.60896
4848000000,-58.600445,-147.50586
4851000000,-58.822388,-163.49829
4854000000,-58.853157,-177.95107
4857000000,-58.511314,166.04404
4860000000,-58.789444,148.39873
4863000000,-58.698452,129.96404
4866000000,-58.627235,113.95338
4869000000,-58.886101,101.52737
4872000000,-58.909145,82.936745
4875000000,-58.595436,69.494095
4878000000,-59.116306,52.426212
4881000000,-58.709091,37.154667
4884000000,-58.97657,21.101059
4887000000,-58.765209,5.2322054
4890000000,-58.170769,-11.891459
4893000000,-58.479328,-27.952509
4896000000,-58.411713,-46.596947
4899000000,-58.506504,-64.379387
4902000000,-58.668003,-80.069618
4905000000,-58.897755,-95.18457
4908000000,-58.583241,-111.6037
4911000000,-58.412411,-126.14086
4914000000,-58.605068,-145.55699
4917000000,-58.251591,-163.49071
4920000000,-58.290775,-179.09395
4923000000,-58.36377,161.50241
4926000000,-58.820335,146.52893
4929000000,-58.922428,129.95636
4932000000,-58.873096,115.03756
4935000000,-58.901928,98.974525
4938000000,-58.544426,82.30278
4941000000,-58.818031,66.807457
4944000000,-58.827267,48.437771
4947000000,-58.761765,34.545864
4950000000,-59.12278,17.305012
4953000000,-58.777363,2.2928987
4956000000,-58.55563,-15.132805
4959000000,-58.647675,-30.710043
4962000000,-58.807457,-47.673626
4965000000,-58.814251,-65.70179
4968000000,-59.041985,-81.927063
4971000000,-58.681885,-97.358093
4974000000,-58.526684,-113.14657
4977000000,-58.95303,-132.12939
4980000000,-58.902206,-148.19991
4983000000,-58.931282,-165.19844
4986000000,-58.96056,179.34813
4989000000,-59.191803,165.48399
4992000000,-59.376186,147.89339
4995000000,-59.224979,131.63838
4998000000,-59.496601,118.46399
5001000000,-59.215324,100.44981
5004000000,-58.731998,84.617096
5007000000,-58.724689,71.062248
5010000000,-58.874012,50.953785
5013000000,-58.996948,34.622078
5016000000,-58.840477,17.994129
5019000000,-58.967545,2.8166723
5022000000,-58.660702,-13.736702
5025000000,-58.869743,-30.881376
5028000000,-58.801746,-47.054153
5031000000,-58.553345,-63.788464
5034000000,-58.510551,-78.943542
5037000000,-58.655415,-97.852707
5040000000,-58.890335,-114.43525
5043000000,-58.719406,-129.71391
5046000000,-58.860146,-146.7162
5049000000,-58.533924,-162.44696
5052000000,-58.772751,-179.83841
5055000000,-58.535583,164.1609
5058000000,-58.843758,145.47849
5061000000,-58.694267,128.25528
5064000000,-59.155979,110.46045
5067000000,-59.2798,97.422653
5070000000,-59.278458,82.296249
5073000000,-58.812,66.994019
5076000000,-58.800991,50.035545
5079000000,-59.019936,33.823021
5082000000,-58.817268,16.185078
5085000000,-59.009678,-0.15262376
5088000000,-58.85799,-16.718201
5091000000,-58.931355,-33.872433
5094000000,-59.141541,-51.285007
5097000000,-59.061554,-63.395363
5100000000,-59.25499,-81.889847
5103000000,-59.238522,-97.944435
5106000000,-58.924568,-117.07775
5109000000,-59.071102,-129.95277
5112000000,-59.134724,-147.21814
5115000000,-59.572525,-164.60237
5118000000,-59.736961,-178.67421
5121000000,-59.318233,167.24782
5124000000,-59.228561,150.0424
5127000000,-58.878258,132.92316
5130000000,-58.458267,113.97407
5133000000,-58.672146,97.18663
5136000000,-58.921738,80.263832
5139000000,-58.880684,65.859413
5142000000,-59.482349,46.382385
5145000000,-58.998764,31.336645
5148000000,-58.906143,15.407023
5151000000,-58.689686,-1.3613371
5154000000,-59.014194,-17.693218
5157000000,-59.123081,-36.088348
5160000000,-59.151047,-53.3839
5163000000,-58.914463,-68.647621
5166000000,-59.301094,-85.380737
5169000000,-59.192284,-100.17102
5172000000,-59.109474,-119.61515
5175000000,-59.643238,-132.55273
5178000000,-59.460007,-148.92256
5181000000,-59.682964,-167.57637
5184000000,-59.476124,179.8255
5187000000,-59.223194,163.1107
5190000000,-59.018826,144.08522
5193000000,-59.088577,126.30183
5196000000,-59.278316,111.34454
5199000000,-59.615463,95.275002
5202000000,-59.587727,81.584923
5205000000,-59.522537,66.917068
5208000000,-58.809845,49.643089
5211000000,-58.621052,31.946144
5214000000,-58.901772,12.986856
5217000000,-58.906944,-3.5295656
5220000000,-59.412666,-20.76935
5223000000,-59.375572,-37.971199
5226000000,-59.902164,-54.652752
5229000000,-59.662968,-67.512901
5232000000,-59.454193,-81.557838
5235000000,-59.14431,-100.20983
5238000000,-59.33947,-117.31676
5241000000,-59.152107,-133.6537
5244000000,-59.674164,-151.51424
5247000000,-59.509041,-169.20872
5250000000,-59.697701,176.77939
5253000000,-59.558136,161.19337
5256000000,-59.216904,146.38499
5259000000,-59.481297,130.04239
5262000000,-59.152405,115.82042
5265000000,-59.340542,96.321655
5268000000,-59.227913,78.121361
5271000000,-59.466393,60.152813
5274000000,-59.567608,42.964954
5277000000,-59.594814,25.647791
5280000000,-59.881851,11.341159
5283000000,-59.90517,-3.6902604
5286000000,-60.101421,-19.547894
5289000000,-59.711597,-34.352093
5292000000,-59.837044,-48.367981
5295000000,-59.587402,-67.352013
5298000000,-60.07655,-86.823959
5301000000,-59.664387,-102.5248
5304000000,-59.797745,-117.27379
5307000000,-59.960522,-131.47453
5310000000,-59.986404,-147.13411
5313000000,-59.624283,-163.77078
5316000000,-59.408619,-179.08847
5319000000,-59.40118,162.35152
5322000000,-59.304646,144.2793
5325000000,-59.589409,128.21051
5328000000,-59.987812,109.1314
5331000000,-59.915142,96.111923
5334000000,-60.018257,79.889915
5337000000,-59.784882,63.213982
5340000000,-59.856155,48.360126
5343000000,-59.75544,31.555071
5346000000,-59.520462,13.499146
5349000000,-59.445454,-4.1923971
5352000000,-59.616283,-20.906269
5355000000,-59.558121,-36.81076
5358000000,-59.447495,-51.291985
5361000000,-59.928104,-69.010414
5364000000,-59.634377,-83.982353
5367000000,-59.828327,-99.753288
5370000000,-59.45821,-117.94685
5373000000,-59.638065,-133.50433
5376000000,-59.567616,-150.51204
5379000000,-59.794254,-168.76799
5382000000,-59.563995,174.42593
5385000000,-59.625004,160.90414
5388000000,-60.015636,143.94888
5391000000,-59.71748,126.92194
5394000000,-59.567444,112.32617
5397000000,-59.688305,96.532089
5400000000,-59.289906,79.544456
5403000000,-59.416733,61.412609
5406000000,-59.895092,44.216202
5409000000,-60.164726,25.889753
5412000000,-60.348091,10.318857
5415000000,-60.326878,-3.1179113
5418000000,-59.923759,-19.324905
5421000000,-59.827629,-36.804329
5424000000,-59.717659,-51.459698
5427000000,-59.83387,-69.754776
5430000000,-59.999737,-85.544586
5433000000,-60.101074,-101.64355
5436000000,-60.032734,-121.00216
5439000000,-60.1171,-134.51668
5442000000,-60.286331,-148.2383
5445000000,-59.784122,-163.67534
5448000000,-59.926117,176.90552
5451000000,-60.299076,159.83038
5454000000,-59.989513,144.89862
5457000000,-59.925556,128.51561
5460000000,-59.938908,110.92362
5463000000,-60.084167,95.548149
5466000000,-59.895519,78.576942
5469000000,-59.81567,59.038864
5472000000,-59.718018,45.29126
5475000000,-59.763271,31.57394
5478000000,-59.88118,12.185427
5481000000,-59.758419,-5.8967209
5484000000,-60.002754,-18.416578
5487000000,-60.002846,-36.458225
5490000000,-60.104897,-54.846081
5493000000,-59.792465,-69.075806
5496000000,-59.918533,-89.469742
5499000000,-59.838104,-100.30018
5502000000,-60.283211,-119.0778
5505000000,-59.942055,-136.11046
5508000000,-59.854248,-153.22893
5511000000,-59.90308,-166.8586
5514000000,-59.798885,175.92627
5517000000,-60.253593,158.97778
5520000000,-59.99905,142.42522
5523000000,-59.656498,125.10844
5526000000,-59.683033,109.8083
5529000000,-60.270161,90.510391
5532000000,-59.977314,73.511719
5535000000,-60.132141,59.808247
5538000000,-60.422573,43.433548
5541000000,-60.178074,29.142939
5544000000,-60.208878,11.71256
5547000000,-60.24707,-4.253686
5550000000,-60.55648,-23.602499
5553000000,-60.381607,-37.31892
5556000000,-60.065712,-55.030979
5559000000,-60.496193,-71.123543
5562000000,-60.255325,-85.057091
5565000000,-60.586597,-102.58663
5568000000,-59.910942,-119.64886
5571000000,-60.363903,-136.73032
5574000000,-60.226208,-154.44855
5577000000,-60.198181,-167.86398
5580000000,-60.570736,174.70425
5583000000,-60.299816,159.09525
5586000000,-60.685013,144.03412
5589000000,-60.267525,129.21178
5592000000,-60.071381,111.9951
5595000000,-60.406101,94.212372
5598000000,-60.004673,75.867531
5601000000,-60.706345,57.806767
5604000000,-60.835777,46.367821
5607000000,-59.955437,33.440746
5610000000,-60.591526,14.494511
5613000000,-60.121014,-5.7736025
5616000000,-59.971924,-21.345997
5619000000,-60.51722,-38.48621
5622000000,-60.507568,-53.604229
5625000000,-59.94281,-70.916878
5628000000,-60.720131,-87.263008
5631000000,-60.552765,-105.73853
5634000000,-60.387318,-118.60278
5637000000,-60.530975,-134.74367
5640000000,-60.269505,-150.25995
5643000000,-59.957973,-169.29048
5646000000,-60.698868,171.26077
5649000000,-60.391083,157.83441
5652000000,-60.89016,142.31584
5655000000,-60.938694,123.3897
5658000000,-60.402992,108.40058
5661000000,-60.752235,92.833519
5664000000,-61.719055,77.837257
5667000000,-60.810341,58.529434
5670000000,-60.873348,47.310974
5673000000,-60.424252,27.406675
5676000000,-60.616562,13.495098
5679000000,-61.020073,-2.9590733
5682000000,-60.896446,-13.976351
5685000000,-61.109703,-33.902298
5688000000,-60.693413,-49.271198
5691000000,-60.441643,-67.077988
5694000000,-60.422955,-82.222427
5697000000,-60.799408,-99.552368
5700000000,-60.05146,-115.97169
5703000000,-60.616581,-135.30139
5706000000,-60.877739,-148.29045
5709000000,-60.957764,-167.5881
5712000000,-60.316364,174.77109
5715000000,-60.569672,162.00276
5718000000,-60.930588,146.3335
5721000000,-60.213959,130.08096
5724000000,-60.719673,114.14032
5727000000,-60.753967,94.33654
5730000000,-60.060154,79.286461
5733000000,-61.031033,64.330032
5736000000,-61.178371,50.865311
5739000000,-60.454369,32.240398
5742000000,-60.384266,14.195614
5745000000,-60.620358,-5.5985661
5748000000,-60.166973,-19.601603
5751000000,-60.443188,-38.388439
5754000000,-60.374161,-50.350548
5757000000,-60.632206,-70.14267
5760000000,-60.827301,-84.402855
5763000000,-60.673866,-100.26357
5766000000,-60.616344,-115.54588
5769000000,-60.612961,-133.50069
5772000000,-60.505074,-148.88045
5775000000,-60.431271,-164.32188
5778000000,-60.458542,176.06552
5781000000,-61.09082,160.75514
5784000000,-60.63718,144.6517
5787000000,-60.616257,130.72997
5790000000,-60.885738,112.86957
5793000000,-60.919167,98.04332
5796000000,-60.222832,82.313637
5799000000,-61.038029,65.97982
5802000000,-60.822933,47.453079
5805000000,-61.019363,31.21977
5808000000,-60.909649,8.9207764
5811000000,-61.065434,-0.51408851
5814000000,-60.895855,-18.558636
5817000000,-60.434135,-30.614016
5820000000,-60.471653,-47.83371
5823000000,-60.6367,-67.312988
5826000000,-60.733112,-86.525719
5829000000,-60.806156,-101.32301
5832000000,-60.552082,-117.8979
5835000000,-61.546467,-132.48247
5838000000,-60.952621,-147.89041
5841000000,-61.311115,-166.66821
5844000000,-61.441219,-177.80023
5847000000,-60.773094,165.3237
5850000000,-60.73819,146.32913
5853000000,-60.268326,131.68919
5856000000,-60.781078,112.48307
5859000000,-60.710007,96.015976
5862000000,-61.410637,78.561363
5865000000,-60.819759,65.976288
5868000000,-61.226234,52.111641
5871000000,-60.726738,35.301308
5874000000,-60.718357,19.588903
5877000000,-60.946594,2.6116822
5880000000,-60.834972,-14.851019
5883000000,-60.679951,-31.087858
5886000000,-60.75922,-48.181671
5889000000,-60.55336,-64.986
5892000000,-61.064526,-80.956673
5895000000,-60.438915,-98.219574
5898000000,-60.6394,-114.92724
5901000000,-60.502823,-130.2095
5904000000,-60.713104,-144.67232
5907000000,-60.449783,-163.24257
5910000000,-61.013512,-179.23166
5913000000,-60.913208,165.29692
5916000000,-61.063122,149.44699
5919000000,-60.432583,134.18823
5922000000,-60.402725,114.35817
5925000000,-60.485416,99.445709
5928000000,-60.870277,80.582146
5931000000,-60.471222,63.434433
5934000000,-60.435005,48.139748
5937000000,-60.79406,33.53548
5940000000,-60.715153,16.965071
5943000000,-60.427746,-1.9097627
5946000000,-60.423061,-15.566336
5949000000,-61.144558,-32.962822
5952000000,-60.668335,-52.412876
5955000000,-60.950409,-61.90258
5958000000,-60.616058,-79.957901
5961000000,-61.208179,-97.910637
5964000000,-60.392868,-113.029
5967000000,-60.509495,-130.21916
5970000000,-61.321983,-143.97157
5973000000,-60.391693,-157.38425
5976000000,-60.878372,179.07071
5979000000,-60.850376,163.40935
5982000000,-60.776527,148.65868
5985000000,-60.768295,132.10617
5988000000,-60.616245,113.57149
5991000000,-61.027805,100.26263
5994000000,-60.474636,82.604851
5997000000,-60.669422,67.163345
6000000000,-60.395302,53.13345
END

