!CSV A.01.01
!Keysight Technologies,N5227B,US58420762,A.13.80.08
!Date: Monday, November 20, 2023 15:32:30
!Source: Standard

BEGIN CH1_DATA
Time(s),S21(DB),S21(DEG)
1e-008,-117.25926,-106.52776
1.001e-008,-116.97845,-91.823486
1.002e-008,-116.71443,-77.067429
1.003e-008,-116.46843,-62.26593
1.004e-008,-116.24158,-47.416897
1.005e-008,-116.0345,-32.526031
1.006e-008,-115.84793,-17.594532
1.007e-008,-115.68251,-2.6263795
1.008e-008,-115.53848,12.377227
1.009e-008,-115.41673,27.411589
1.01e-008,-115.31733,42.476273
1.011e-008,-115.24071,57.566387
1.012e-008,-115.18701,72.680901
1.013e-008,-115.15658,87.818146
1.014e-008,-115.1496,102.9739
1.015e-008,-115.16633,118.14819
1.016e-008,-115.20692,133.33893
1.017e-008,-115.27154,148.54471
1.018e-008,-115.36026,163.76483
1.019e-008,-115.47361,178.99919
1.02e-008,-115.6114,-165.75266
1.021e-008,-115.77397,-150.49118
1.022e-008,-115.96124,-135.21417
1.023e-008,-116.17342,-119.91995
1.024e-008,-116.41071,-104.60732
1.025e-008,-116.67329,-89.273659
1.026e-008,-116.961,-73.910454
1.027e-008,-117.27406,-58.515045
1.028e-008,-117.61217,-43.07885
1.029e-008,-117.97523,-27.592709
1.03e-008,-118.36297,-12.044707
1.031e-008,-118.77513,3.5805676
1.032e-008,-119.21095,19.300148
1.033e-008,-119.66943,35.137985
1.034e-008,-120.14879,51.116554
1.035e-008,-120.64742,67.273804
1.036e-008,-121.16184,83.641151
1.037e-008,-121.68842,100.26633
1.038e-008,-122.22057,117.19101
1.039e-008,-122.7511,134.47208
1.04e-008,-123.26926,152.15726
1.041e-008,-123.7611,170.29237
1.042e-008,-124.20889,-171.09496
1.043e-008,-124.5929,-152.00446
1.044e-008,-124.89214,-132.4767
1.045e-008,-125.08591,-112.60272
1.046e-008,-125.15866,-92.520691
1.047e-008,-125.10451,-72.400551
1.048e-008,-124.9266,-52.415661
1.049e-008,-124.63712,-32.71981
1.05e-008,-124.25568,-13.425981
1.051e-008,-123.80339,5.4130874
1.052e-008,-123.30163,23.784538
1.053e-008,-122.7683,41.705841
1.054e-008,-122.21977,59.21817
1.055e-008,-121.66663,76.369347
1.056e-008,-121.11835,93.211754
1.057e-008,-120.58128,109.79359
1.058e-008,-120.06071,126.15909
1.059e-008,-119.55972,142.34705
1.06e-008,-119.08082,158.39359
1.061e-008,-118.62564,174.32503
1.062e-008,-118.19601,-169.83264
1.063e-008,-117.79208,-154.06215
1.064e-008,-117.41506,-138.34445
1.065e-008,-117.06522,-122.66907
1.066e-008,-116.74306,-107.02067
1.067e-008,-116.44838,-91.393745
1.068e-008,-116.18208,-75.778511
1.069e-008,-115.94378,-60.170895
1.07e-008,-115.73402,-44.562881
1.071e-008,-115.55287,-28.953329
1.072e-008,-115.40008,-13.336462
1.073e-008,-115.27659,2.2900975
1.074e-008,-115.18241,17.92831
1.075e-008,-115.11777,33.581532
1.076e-008,-115.08289,49.250904
1.077e-008,-115.07852,64.939606
1.078e-008,-115.10477,80.649704
1.079e-008,-115.16257,96.381424
1.08e-008,-115.25193,112.13917
1.081e-008,-115.37445,127.92237
1.082e-008,-115.53013,143.73892
1.083e-008,-115.72028,159.58813
1.084e-008,-115.94572,175.47482
1.085e-008,-116.20805,-168.59517
1.086e-008,-116.50818,-152.61555
1.087e-008,-116.84771,-136.58093
1.088e-008,-117.22827,-120.48177
1.089e-008,-117.65181,-104.30608
1.09e-008,-118.12035,-88.043076
1.091e-008,-118.63607,-71.672012
1.092e-008,-119.20123,-55.173698
1.093e-008,-119.81864,-38.519943
1.094e-008,-120.49097,-21.675091
1.095e-008,-121.2198,-4.5940895
1.096e-008,-122.00761,12.77943
1.097e-008,-122.85543,30.525259
1.098e-008,-123.76118,48.73513
1.099e-008,-124.71995,67.535942
1.1e-008,-125.71917,87.063988
1.101e-008,-126.73656,107.49007
1.102e-008,-127.73267,128.95341
1.103e-008,-128.64879,151.52509
1.104e-008,-129.41252,175.09119
1.105e-008,-129.95036,-160.72583
1.106e-008,-130.22224,-136.57315
1.107e-008,-130.23949,-113.14388
1.108e-008,-130.05925,-90.963463
1.109e-008,-129.75223,-70.294289
1.11e-008,-129.38239,-51.165367
1.111e-008,-128.99068,-33.470135
1.112e-008,-128.60107,-17.05867
1.113e-008,-128.21924,-1.7795061
1.114e-008,-127.84352,12.513246
1.115e-008,-127.46285,25.957434
1.116e-008,-127.06615,38.693321
1.117e-008,-126.63998,50.869469
1.118e-008,-126.17403,62.651531
1.119e-008,-125.66329,74.193459
1.12e-008,-125.10662,85.65551
1.121e-008,-124.50932,97.16909
1.122e-008,-123.88008,108.85141
1.123e-008,-123.23017,120.76852
1.124e-008,-122.57125,132.96823
1.125e-008,-121.91405,145.47299
1.126e-008,-121.2683,158.28058
1.127e-008,-120.64216,171.37685
1.128e-008,-120.04166,-175.25757
1.129e-008,-119.47078,-161.64517
1.13e-008,-118.93382,-147.81439
1.131e-008,-118.43237,-133.78741
1.132e-008,-117.96841,-119.58995
1.133e-008,-117.54293,-105.24148
1.134e-008,-117.1563,-90.76165
1.135e-008,-116.80933,-76.168007
1.136e-008,-116.50189,-61.476315
1.137e-008,-116.23464,-46.699417
1.138e-008,-116.00708,-31.850279
1.139e-008,-115.82009,-16.941103
1.14e-008,-115.67367,-1.9809155
1.141e-008,-115.56837,13.020909
1.142e-008,-115.5045,28.055048
1.143e-008,-115.48325,43.111752
1.144e-008,-115.50537,58.185207
1.145e-008,-115.57196,73.26358
1.146e-008,-115.68478,88.341331
1.147e-008,-115.84601,103.40618
1.148e-008,-116.05768,118.44865
1.149e-008,-116.3229,133.45607
1.15e-008,-116.64519,148.4146
1.151e-008,-117.02922,163.30666
1.152e-008,-117.48027,178.10899
1.153e-008,-118.00533,-167.20676
1.154e-008,-118.61229,-152.67787
1.155e-008,-119.31295,-138.35876
1.156e-008,-120.12051,-124.32398
1.157e-008,-121.05268,-110.68394
1.158e-008,-122.13231,-97.612793
1.159e-008,-123.38771,-85.384087
1.16e-008,-124.85236,-74.464676
1.161e-008,-126.55367,-65.685707
1.162e-008,-128.46724,-60.52198
1.163e-008,-130.36089,-61.245625
1.164e-008,-131.49898,-69.035614
1.165e-008,-131.0573,-78.680702
1.166e-008,-129.44087,-82.492279
1.167e-008,-127.5689,-79.531944
1.168e-008,-125.85242,-72.098068
1.169e-008,-124.37505,-62.019676
1.17e-008,-123.12106,-50.355053
1.171e-008,-122.05772,-37.706219
1.172e-008,-121.15376,-24.40749
1.173e-008,-120.38488,-10.672469
1.174e-008,-119.73074,3.3656394
1.175e-008,-119.17683,17.615088
1.176e-008,-118.7111,32.014717
1.177e-008,-118.3239,46.517784
1.178e-008,-118.00834,61.090004
1.179e-008,-117.75827,75.701576
1.18e-008,-117.56846,90.330635
1.181e-008,-117.43513,104.95858
1.182e-008,-117.35479,119.56853
1.183e-008,-117.32469,134.14154
1.184e-008,-117.34215,148.66132
1.185e-008,-117.40506,163.11563
1.186e-008,-117.51053,177.49025
1.187e-008,-117.65723,-168.23447
1.188e-008,-117.84229,-154.0735
1.189e-008,-118.06339,-140.04089
1.19e-008,-118.31756,-126.15305
1.191e-008,-118.60152,-112.42613
1.192e-008,-118.91153,-98.875092
1.193e-008,-119.24278,-85.507118
1.194e-008,-119.58997,-72.330864
1.195e-008,-119.94712,-59.347187
1.196e-008,-120.30657,-46.548985
1.197e-008,-120.66218,-33.913345
1.198e-008,-121.00562,-21.407423
1.199e-008,-121.33051,-8.9768629
1.2e-008,-121.63195,3.4323215
1.201e-008,-121.90573,15.903486
1.202e-008,-122.15017,28.524248
1.203e-008,-122.36725,41.382813
1.204e-008,-122.55947,54.558296
1.205e-008,-122.73253,68.146332
1.206e-008,-122.8912,82.223831
1.207e-008,-123.04075,96.853287
1.208e-008,-123.18684,112.09815
1.209e-008,-123.32931,128.01064
1.21e-008,-123.46676,144.64838
1.211e-008,-123.59433,162.04538
1.212e-008,-123.70036,-179.77538
1.213e-008,-123.77053,-160.81206
1.214e-008,-123.78455,-141.09505
1.215e-008,-123.72075,-120.72482
1.216e-008,-123.5626,-99.855034
1.217e-008,-123.29572,-78.679047
1.218e-008,-122.92014,-57.431911
1.219e-008,-122.4455,-36.31818
1.22e-008,-121.8911,-15.514549
1.221e-008,-121.27872,4.8705959
1.222e-008,-120.63239,24.781298
1.223e-008,-119.97362,44.211899
1.224e-008,-119.31958,63.187939
1.225e-008,-118.68292,81.747414
1.226e-008,-118.07322,99.936218
1.227e-008,-117.49761,117.80194
1.228e-008,-116.9604,135.3851
1.229e-008,-116.4643,152.72554
1.23e-008,-116.01144,169.85529
1.231e-008,-115.60258,-173.19841
1.232e-008,-115.23899,-156.40932
1.233e-008,-114.92077,-139.76079
1.234e-008,-114.64861,-123.23724
1.235e-008,-114.42262,-106.8268
1.236e-008,-114.24351,-90.517982
1.237e-008,-114.11185,-74.304268
1.238e-008,-114.02837,-58.181034
1.239e-008,-113.99439,-42.146282
1.24e-008,-114.01157,-26.199799
1.241e-008,-114.08134,-10.340791
1.242e-008,-114.20641,5.4226398
1.243e-008,-114.38988,21.086035
1.244e-008,-114.63499,36.635571
1.245e-008,-114.94669,52.057396
1.246e-008,-115.33044,67.328201
1.247e-008,-115.79382,82.415314
1.248e-008,-116.34546,97.275642
1.249e-008,-116.99677,111.8446
1.25e-008,-117.76187,126.02416
1.251e-008,-118.65879,139.67522
1.252e-008,-119.70965,152.57381
1.253e-008,-120.93861,164.35368
1.254e-008,-122.36642,174.40306
1.255e-008,-123.98299,-178.31583
1.256e-008,-125.66058,-175.4184
1.257e-008,-126.97173,-178.40024
1.258e-008,-127.19215,174.48035
1.259e-008,-126.13474,169.45088
1.26e-008,-124.45349,170.23853
1.261e-008,-122.72332,176.04955
1.262e-008,-121.15607,-174.86392
1.263e-008,-119.79108,-163.75351
1.264e-008,-118.6143,-151.36172
1.265e-008,-117.60133,-138.13129
1.266e-008,-116.72905,-124.33057
1.267e-008,-115.97878,-110.12971
1.268e-008,-115.33495,-95.640953
1.269e-008,-114.78571,-80.940224
1.27e-008,-114.32121,-66.080925
1.271e-008,-113.93456,-51.10434
1.272e-008,-113.61948,-36.040016
1.273e-008,-113.37188,-20.910065
1.274e-008,-113.18786,-5.7345767
1.275e-008,-113.06528,9.4712315
1.276e-008,-113.00172,24.694307
1.277e-008,-112.99637,39.923512
1.278e-008,-113.04822,55.144871
1.279e-008,-113.15714,70.349174
1.28e-008,-113.32379,85.523605
1.281e-008,-113.54855,100.6569
1.282e-008,-113.83308,115.73498
1.283e-008,-114.17908,130.74138
1.284e-008,-114.58922,145.65828
1.285e-008,-115.066,160.46347
1.286e-008,-115.61344,175.12924
1.287e-008,-116.23576,-170.38043
1.288e-008,-116.93787,-156.10931
1.289e-008,-117.72552,-142.11429
1.29e-008,-118.60455,-128.47508
1.291e-008,-119.58146,-115.29227
1.292e-008,-120.66099,-102.70906
1.293e-008,-121.84521,-90.912125
1.294e-008,-123.12795,-80.158127
1.295e-008,-124.48746,-70.769341
1.296e-008,-125.87269,-63.100506
1.297e-008,-127.18678,-57.407776
1.298e-008,-128.29152,-53.564548
1.299e-008,-129.05571,-50.772076
1.3e-008,-129.44757,-47.679874
1.301e-008,-129.57245,-43.077858
1.302e-008,-129.6066,-36.401749
1.303e-008,-129.7159,-27.687057
1.304e-008,-130.0303,-17.176725
1.305e-008,-130.67226,-5.1247363
1.306e-008,-131.79099,8.4186401
1.307e-008,-133.64609,23.804663
1.308e-008,-136.81662,42.853844
1.309e-008,-142.96317,77.118828
1.31e-008,-144.43694,-173.36742
1.311e-008,-135.93184,-127.99775
1.312e-008,-130.92293,-106.2688
1.313e-008,-127.44176,-88.501205
1.314e-008,-124.75919,-71.962082
1.315e-008,-122.5725,-55.928154
1.316e-008,-120.7293,-40.130558
1.317e-008,-119.1415,-24.45437
1.318e-008,-117.75375,-8.839076
1.319e-008,-116.52908,6.7431803
1.32e-008,-115.44155,22.30662
1.321e-008,-114.47226,37.862034
1.322e-008,-113.60686,53.409985
1.323e-008,-112.83446,68.955048
1.324e-008,-112.1468,84.494949
1.325e-008,-111.53747,100.02956
1.326e-008,-111.00074,115.55605
1.327e-008,-110.53321,131.07121
1.328e-008,-110.13144,146.57317
1.329e-008,-109.79336,162.05727
1.33e-008,-109.51713,177.51952
1.331e-008,-109.30183,-167.04578
1.332e-008,-109.14703,-151.64355
1.333e-008,-109.05296,-136.28185
1.334e-008,-109.02012,-120.96893
1.335e-008,-109.0499,-105.71459
1.336e-008,-109.14431,-90.53138
1.337e-008,-109.30579,-75.435219
1.338e-008,-109.53779,-60.444798
1.339e-008,-109.84447,-45.586021
1.34e-008,-110.23128,-30.891624
1.341e-008,-110.70493,-16.404518
1.342e-008,-111.27298,-2.1840291
1.343e-008,-111.94555,11.687282
1.344e-008,-112.73371,25.093279
1.345e-008,-113.65035,37.863335
1.346e-008,-114.70717,49.741428
1.347e-008,-115.9113,60.343887
1.348e-008,-117.24995,69.094383
1.349e-008,-118.66077,75.183563
1.35e-008,-119.96748,77.771111
1.351e-008,-120.84052,76.824249
1.352e-008,-120.95494,74.361458
1.353e-008,-120.33532,73.667221
1.354e-008,-119.33154,76.539925
1.355e-008,-118.26719,82.799637
1.356e-008,-117.31255,91.575684
1.357e-008,-116.53391,102.07185
1.358e-008,-115.9532,113.72249
1.359e-008,-115.57851,126.12978
1.36e-008,-115.4182,139.01842
1.361e-008,-115.48776,152.16928
1.362e-008,-115.81635,165.38109
1.363e-008,-116.45414,178.41434
1.364e-008,-117.4903,-169.10187
1.365e-008,-119.08442,-157.91518
1.366e-008,-121.54249,-149.96951
1.367e-008,-125.37194,-152.25542
1.368e-008,-128.60452,171.28738
1.369e-008,-123.93738,136.7724
1.37e-008,-118.96655,135.4865
1.371e-008,-115.33582,144.00098
1.372e-008,-112.53351,155.7758
1.373e-008,-110.25648,168.98024
1.374e-008,-108.34194,-177.06973
1.375e-008,-106.69525,-162.68353
1.376e-008,-105.2575,-148.02318
1.377e-008,-103.98994,-133.18213
1.378e-008,-102.86587,-118.22155
1.379e-008,-101.8666,-103.18094
1.38e-008,-100.97855,-88.091049
1.381e-008,-100.19224,-72.975037
1.382e-008,-99.500854,-57.854408
1.383e-008,-98.900024,-42.748333
1.384e-008,-98.387306,-27.676563
1.385e-008,-97.962021,-12.660979
1.386e-008,-97.625298,2.2729704
1.387e-008,-97.380028,17.094278
1.388e-008,-97.231102,31.762047
1.389e-008,-97.185799,46.22184
1.39e-008,-97.25425,60.397285
1.391e-008,-97.449921,74.177834
1.392e-008,-97.790375,87.395653
1.393e-008,-98.297234,99.78775
1.394e-008,-98.993759,110.9222
1.395e-008,-99.893761,120.06991
1.396e-008,-100.96154,126.01019
1.397e-008,-101.99535,127.00395
1.398e-008,-102.43818,122.14624
1.399e-008,-101.61898,114.928
1.4e-008,-99.679672,111.61742
1.401e-008,-97.341698,114.19827
1.402e-008,-95.049652,121.23326
1.403e-008,-92.938812,131.08937
1.404e-008,-91.021996,142.70349
1.405e-008,-89.278732,155.4472
1.406e-008,-87.683601,168.94691
1.407e-008,-86.213905,-177.02754
1.408e-008,-84.850914,-162.62334
1.409e-008,-83.579544,-147.93843
1.41e-008,-82.38768,-133.03984
1.411e-008,-81.265564,-117.97523
1.412e-008,-80.205193,-102.77895
1.413e-008,-79.200043,-87.476692
1.414e-008,-78.244644,-72.087784
1.415e-008,-77.334427,-56.627174
1.416e-008,-76.465515,-41.106564
1.417e-008,-75.634605,-25.535252
1.418e-008,-74.838829,-9.9206915
1.419e-008,-74.075737,5.7310114
1.42e-008,-73.343155,21.414879
1.421e-008,-72.639191,37.126759
1.422e-008,-71.962166,52.863167
1.423e-008,-71.3106,68.621178
1.424e-008,-70.683151,84.398277
1.425e-008,-70.078644,100.19234
1.426e-008,-69.495995,116.00153
1.427e-008,-68.934235,131.82422
1.428e-008,-68.392487,147.65906
1.429e-008,-67.869949,163.50479
1.43e-008,-67.365891,179.36034
1.431e-008,-66.879654,-164.77527
1.432e-008,-66.410606,-148.90286
1.433e-008,-65.958199,-133.02321
1.434e-008,-65.521904,-117.13698
1.435e-008,-65.101242,-101.24482
1.436e-008,-64.695778,-85.347275
1.437e-008,-64.305084,-69.444839
1.438e-008,-63.92878,-53.538006
1.439e-008,-63.566521,-37.627171
1.44e-008,-63.21796,-21.712749
1.441e-008,-62.882801,-5.7950964
1.442e-008,-62.560745,10.125456
1.443e-008,-62.251526,26.048599
1.444e-008,-61.954891,41.97403
1.445e-008,-61.670605,57.901497
1.446e-008,-61.398445,73.830719
1.447e-008,-61.138203,89.761475
1.448e-008,-60.889683,105.69352
1.449e-008,-60.652706,121.62664
1.45e-008,-60.427101,137.56064
1.451e-008,-60.212704,153.4953
1.452e-008,-60.009369,169.43044
1.453e-008,-59.816948,-174.63412
1.454e-008,-59.635311,-158.69858
1.455e-008,-59.46434,-142.76308
1.456e-008,-59.303909,-126.82782
1.457e-008,-59.153919,-110.89295
1.458e-008,-59.014263,-94.958633
1.459e-008,-58.884846,-79.02504
1.46e-008,-58.765583,-63.092316
1.461e-008,-58.656387,-47.160629
1.462e-008,-58.557186,-31.230135
1.463e-008,-58.467911,-15.300984
1.464e-008,-58.388489,0.62665325
1.465e-008,-58.318867,16.552637
1.466e-008,-58.258987,32.476799
1.467e-008,-58.208801,48.398975
1.468e-008,-58.168262,64.319016
1.469e-008,-58.137329,80.23674
1.47e-008,-58.115971,96.151993
1.471e-008,-58.104149,112.06459
1.472e-008,-58.101841,127.97437
1.473e-008,-58.10902,143.88115
1.474e-008,-58.125671,159.78473
1.475e-008,-58.151772,175.68492
1.476e-008,-58.187317,-168.41846
1.477e-008,-58.232296,-152.5256
1.478e-008,-58.286705,-136.63675
1.479e-008,-58.350544,-120.75209
1.48e-008,-58.42382,-104.87187
1.481e-008,-58.506535,-88.99633
1.482e-008,-58.598701,-73.125687
1.483e-008,-58.700333,-57.260227
1.484e-008,-58.811451,-41.400192
1.485e-008,-58.932076,-25.545879
1.486e-008,-59.062229,-9.6975689
1.487e-008,-59.201939,6.1444259
1.488e-008,-59.351246,21.979778
1.489e-008,-59.510178,37.808163
1.49e-008,-59.678772,53.629219
1.491e-008,-59.857079,69.442581
1.492e-008,-60.045139,85.247849
1.493e-008,-60.243004,101.04459
1.494e-008,-60.450726,116.8324
1.495e-008,-60.668362,132.61079
1.496e-008,-60.895973,148.37927
1.497e-008,-61.133621,164.13734
1.498e-008,-61.381378,179.88446
1.499e-008,-61.639305,-164.37999
1.5e-008,-61.907486,-148.65662
1.501e-008,-62.185989,-132.94604
1.502e-008,-62.474903,-117.24899
1.503e-008,-62.774307,-101.56618
1.504e-008,-63.08429,-85.898438
1.505e-008,-63.404942,-70.246559
1.506e-008,-63.736355,-54.61145
1.507e-008,-64.078629,-38.994064
1.508e-008,-64.431854,-23.395424
1.509e-008,-64.796135,-7.8165889
1.51e-008,-65.171585,7.7412829
1.511e-008,-65.558289,23.276951
1.512e-008,-65.956367,38.789101
1.513e-008,-66.365929,54.276333
1.514e-008,-66.787071,69.737144
1.515e-008,-67.219902,85.16993
1.516e-008,-67.664528,100.57297
1.517e-008,-68.121056,115.94441
1.518e-008,-68.589584,131.28235
1.519e-008,-69.070213,146.58463
1.52e-008,-69.563034,161.84903
1.521e-008,-70.068123,177.07318
1.522e-008,-70.585556,-167.74551
1.523e-008,-71.115402,-152.60974
1.524e-008,-71.657707,-137.52242
1.525e-008,-72.212517,-122.48662
1.526e-008,-72.779839,-107.50564
1.527e-008,-73.359673,-92.582932
1.528e-008,-73.951981,-77.722206
1.529e-008,-74.556725,-62.927326
1.53e-008,-75.173798,-48.202408
1.531e-008,-75.803078,-33.551723
1.532e-008,-76.444389,-18.979795
1.533e-008,-77.097549,-4.4912744
1.534e-008,-77.762276,9.9089737
1.535e-008,-78.438263,24.215952
1.536e-008,-79.12516,38.424484
1.537e-008,-79.82254,52.529354
1.538e-008,-80.52993,66.525208
1.539e-008,-81.246811,80.406647
1.54e-008,-81.972595,94.168175
1.541e-008,-82.706688,107.80434
1.542e-008,-83.448425,121.30953
1.543e-008,-84.197128,134.67807
1.544e-008,-84.952126,147.90399
1.545e-008,-85.71273,160.98102
1.546e-008,-86.478256,173.90227
1.547e-008,-87.248047,-173.34003
1.548e-008,-88.021439,-160.75505
1.549e-008,-88.797729,-148.35379
1.55e-008,-89.576118,-136.1496
1.551e-008,-90.355667,-124.15888
1.552e-008,-91.135033,-112.40193
1.553e-008,-91.912354,-100.90341
1.554e-008,-92.68483,-89.692245
1.555e-008,-93.448418,-78.801941
1.556e-008,-94.197174,-68.268539
1.557e-008,-94.922829,-58.128094
1.558e-008,-95.614166,-48.410526
1.559e-008,-96.25676,-39.131569
1.56e-008,-96.833252,-30.281906
1.561e-008,-97.324715,-21.81443
1.562e-008,-97.712898,-13.635916
1.563e-008,-97.983803,-5.6079893
1.564e-008,-98.130669,2.4414508
1.565e-008,-98.156013,10.692115
1.566e-008,-98.071259,19.305059
1.567e-008,-97.894119,28.40029
1.568e-008,-97.645126,38.049202
1.569e-008,-97.344597,48.27702
1.57e-008,-97.010605,59.074219
1.571e-008,-96.657852,70.407745
1.572e-008,-96.297836,82.232727
1.573e-008,-95.938858,94.498512
1.574e-008,-95.587029,107.15526
1.575e-008,-95.246445,120.15527
1.576e-008,-94.919762,133.45531
1.577e-008,-94.608688,147.01625
1.578e-008,-94.314156,160.80373
1.579e-008,-94.036583,174.78716
1.58e-008,-93.776054,-171.06042
1.581e-008,-93.53241,-156.76244
1.582e-008,-93.305328,-142.34019
1.583e-008,-93.094383,-127.81198
1.584e-008,-92.899139,-113.19444
1.585e-008,-92.719048,-98.502083
1.586e-008,-92.553619,-83.748383
1.587e-008,-92.402298,-68.944969
1.588e-008,-92.26461,-54.102924
1.589e-008,-92.139999,-39.231525
1.59e-008,-92.027992,-24.339848
1.591e-008,-91.928078,-9.4359484
1.592e-008,-91.839775,5.4730029
1.593e-008,-91.762581,20.380198
1.594e-008,-91.696045,35.279716
1.595e-008,-91.639648,50.165966
1.596e-008,-91.592918,65.033821
1.597e-008,-91.555344,79.879051
1.598e-008,-91.526428,94.697227
1.599e-008,-91.505638,109.48499
1.6e-008,-91.492424,124.23914
1.601e-008,-91.486237,138.95708
1.602e-008,-91.486496,153.6364
1.603e-008,-91.492622,168.27534
1.604e-008,-91.503998,-177.12756
1.605e-008,-91.520004,-162.57266
1.606e-008,-91.539993,-148.06068
1.607e-008,-91.563339,-133.59137
1.608e-008,-91.589378,-119.16409
1.609e-008,-91.617485,-104.7773
1.61e-008,-91.647018,-90.429588
1.611e-008,-91.677376,-76.118469
1.612e-008,-91.707954,-61.841095
1.613e-008,-91.73822,-47.594131
1.614e-008,-91.767647,-33.373966
1.615e-008,-91.795799,-19.176161
1.616e-008,-91.822243,-4.9963369
1.617e-008,-91.84671,9.1707163
1.618e-008,-91.868874,23.329878
1.619e-008,-91.888603,37.486805
1.62e-008,-91.905746,51.646671
1.621e-008,-91.920311,65.815163
1.622e-008,-91.932312,79.997589
1.623e-008,-91.941864,94.199242
1.624e-008,-91.94915,108.42536
1.625e-008,-91.954391,122.68077
1.626e-008,-91.957886,136.97009
1.627e-008,-91.959923,151.29745
1.628e-008,-91.960861,165.66692
1.629e-008,-91.961082,-179.91798
1.63e-008,-91.96093,-165.4541
1.631e-008,-91.960815,-150.93869
1.632e-008,-91.961105,-136.36925
1.633e-008,-91.962166,-121.74367
1.634e-008,-91.964317,-107.06015
1.635e-008,-91.96788,-92.317253
1.636e-008,-91.973145,-77.513718
1.637e-008,-91.980377,-62.648647
1.638e-008,-91.989784,-47.721302
1.639e-008,-92.001526,-32.731228
1.64e-008,-92.01577,-17.677914
1.641e-008,-92.0326,-2.5614743
1.642e-008,-92.052094,12.618323
1.643e-008,-92.074242,27.861109
1.644e-008,-92.099052,43.166672
1.645e-008,-92.126465,58.534481
1.646e-008,-92.156387,73.964012
1.647e-008,-92.188698,89.45443
1.648e-008,-92.223236,105.00494
1.649e-008,-92.25985,120.61429
1.65e-008,-92.298302,136.28143
1.651e-008,-92.338379,152.00476
1.652e-008,-92.379829,167.78285
1.653e-008,-92.422409,-176.38629
1.654e-008,-92.465851,-160.50453
1.655e-008,-92.509872,-144.57416
1.656e-008,-92.55423,-128.59766
1.657e-008,-92.59864,-112.57763
1.658e-008,-92.642868,-96.516968
1.659e-008,-92.686668,-80.418869
1.66e-008,-92.729828,-64.286499
1.661e-008,-92.772194,-48.123398
1.662e-008,-92.813568,-31.933187
1.663e-008,-92.853859,-15.719631
1.664e-008,-92.892975,0.51343983
1.665e-008,-92.930885,16.76193
1.666e-008,-92.967575,33.022079
1.667e-008,-93.00309,49.289642
1.668e-008,-93.037506,65.560776
1.669e-008,-93.070961,81.831497
1.67e-008,-93.1036,98.097961
1.671e-008,-93.13562,114.35654
1.672e-008,-93.167259,130.60361
1.673e-008,-93.198761,146.83586
1.674e-008,-93.230415,163.04991
1.675e-008,-93.262497,179.24307
1.676e-008,-93.295334,-164.58763
1.677e-008,-93.329247,-148.4446
1.678e-008,-93.36451,-132.33025
1.679e-008,-93.401482,-116.24663
1.68e-008,-93.440475,-100.19558
1.681e-008,-93.481766,-84.17878
1.682e-008,-93.525658,-68.197632
1.683e-008,-93.572388,-52.253407
1.684e-008,-93.622223,-36.347073
1.685e-008,-93.675392,-20.4797
1.686e-008,-93.732063,-4.6517916
1.687e-008,-93.792404,11.136147
1.688e-008,-93.85656,26.883339
1.689e-008,-93.924637,42.589882
1.69e-008,-93.996689,58.255421
1.691e-008,-94.072754,73.880196
1.692e-008,-94.152824,89.464134
1.693e-008,-94.2369,105.00755
1.694e-008,-94.324867,120.51094
1.695e-008,-94.416687,135.97472
1.696e-008,-94.512184,151.39948
1.697e-008,-94.611229,166.78613
1.698e-008,-94.713608,-177.86433
1.699e-008,-94.819107,-162.55092
1.7e-008,-94.927513,-147.27229
1.701e-008,-95.038528,-132.02711
1.702e-008,-95.151871,-116.8137
1.703e-008,-95.267235,-101.63011
1.704e-008,-95.384354,-86.474716
1.705e-008,-95.502861,-71.345276
1.706e-008,-95.622414,-56.239372
1.707e-008,-95.742722,-41.154518
1.708e-008,-95.863449,-26.088339
1.709e-008,-95.98423,-11.03777
1.71e-008,-96.104813,4.0002317
1.711e-008,-96.224831,19.028193
1.712e-008,-96.344086,34.04948
1.713e-008,-96.462288,49.067101
1.714e-008,-96.57917,64.084175
1.715e-008,-96.694572,79.103706
1.716e-008,-96.808327,94.128853
1.717e-008,-96.920219,109.16251
1.718e-008,-97.030136,124.20747
1.719e-008,-97.138008,139.26614
1.72e-008,-97.243736,154.34073
1.721e-008,-97.347313,169.43362
1.722e-008,-97.448601,-175.45377
1.723e-008,-97.547707,-160.31979
1.724e-008,-97.644585,-145.1631
1.725e-008,-97.739227,-129.98361
1.726e-008,-97.831726,-114.78058
1.727e-008,-97.922043,-99.5541
1.728e-008,-98.010307,-84.304764
1.729e-008,-98.096489,-69.033173
1.73e-008,-98.180702,-53.740208
1.731e-008,-98.262955,-38.428204
1.732e-008,-98.343269,-23.098381
1.733e-008,-98.421738,-7.7531834
1.734e-008,-98.498375,7.6050024
1.735e-008,-98.573242,22.973438
1.736e-008,-98.646332,38.348984
1.737e-008,-98.71772,53.72871
1.738e-008,-98.787376,69.10965
1.739e-008,-98.85537,84.487656
1.74e-008,-98.921684,99.859879
1.741e-008,-98.986267,115.22295
1.742e-008,-99.049248,130.57315
1.743e-008,-99.110481,145.90753
1.744e-008,-99.170036,161.22249
1.745e-008,-99.227791,176.51514
1.746e-008,-99.283836,-168.217
1.747e-008,-99.33802,-152.97676
1.748e-008,-99.390388,-137.76631
1.749e-008,-99.440804,-122.58751
1.75e-008,-99.489304,-107.44194
1.751e-008,-99.535759,-92.330994
1.752e-008,-99.580132,-77.254875
1.753e-008,-99.622368,-62.214508
1.754e-008,-99.662514,-47.208981
1.755e-008,-99.700432,-32.23843
1.756e-008,-99.736168,-17.301817
1.757e-008,-99.769783,-2.3973966
1.758e-008,-99.801323,12.476542
1.759e-008,-99.830833,27.322229
1.76e-008,-99.858505,42.141811
1.761e-008,-99.884476,56.938679
1.762e-008,-99.909065,71.715065
1.763e-008,-99.932457,86.474442
1.764e-008,-99.955093,101.21999
1.765e-008,-99.977272,115.95544
1.766e-008,-99.99955,130.6832
1.767e-008,-100.02241,145.40697
1.768e-008,-100.0464,160.12965
1.769e-008,-100.07217,174.85419
1.77e-008,-100.10042,-170.41734
1.771e-008,-100.13177,-155.68208
1.772e-008,-100.16705,-140.93874
1.773e-008,-100.20701,-126.18539
1.774e-008,-100.25247,-111.42128
1.775e-008,-100.30428,-96.64505
1.776e-008,-100.36325,-81.857109
1.777e-008,-100.43031,-67.057106
1.778e-008,-100.50633,-52.246513
1.779e-008,-100.5922,-37.425377
1.78e-008,-100.68883,-22.5963
1.781e-008,-100.79723,-7.760766
1.782e-008,-100.91822,7.0778723
1.783e-008,-101.05284,21.916904
1.784e-008,-101.20206,36.751949
1.785e-008,-101.36684,51.57856
1.786e-008,-101.54823,66.390968
1.787e-008,-101.74726,81.183304
1.788e-008,-101.96497,95.947708
1.789e-008,-102.20251,110.67579
1.79e-008,-102.46089,125.35747
1.791e-008,-102.74139,139.98143
1.792e-008,-103.04504,154.53355
1.793e-008,-103.37307,168.99838
1.794e-008,-103.72649,-176.64372
1.795e-008,-104.10635,-162.41406
1.796e-008,-104.51348,-148.33986
1.797e-008,-104.94851,-134.45274
1.798e-008,-105.41137,-120.78981
1.799e-008,-105.90143,-107.39618
1.8e-008,-106.41691,-94.323647
1.801e-008,-106.95416,-81.63279
1.802e-008,-107.50706,-69.391747
1.803e-008,-108.06615,-57.672173
1.804e-008,-108.61695,-46.54467
1.805e-008,-109.13949,-36.064327
1.806e-008,-109.60781,-26.251005
1.807e-008,-109.99146,-17.067287
1.808e-008,-110.25969,-8.3918962
1.809e-008,-110.38815,-0.01866593
1.81e-008,-110.36557,8.3201618
1.811e-008,-110.19763,16.901495
1.812e-008,-109.9049,25.960072
1.813e-008,-109.51677,35.643936
1.814e-008,-109.0647,46.019569
1.815e-008,-108.57645,57.082848
1.816e-008,-108.07417,68.787933
1.817e-008,-107.57441,81.067444
1.818e-008,-107.08829,93.849167
1.819e-008,-106.6232,107.06163
1.82e-008,-106.18359,120.64128
1.821e-008,-105.77212,134.5321
1.822e-008,-105.39,148.68622
1.823e-008,-105.03751,163.06223
1.824e-008,-104.71467,177.62564
1.825e-008,-104.42083,-167.65327
1.826e-008,-104.15553,-152.79987
1.827e-008,-103.91785,-137.83614
1.828e-008,-103.70715,-122.78097
1.829e-008,-103.52269,-107.65098
1.83e-008,-103.36374,-92.46138
1.831e-008,-103.22964,-77.225731
1.832e-008,-103.11989,-61.956051
1.833e-008,-103.03386,-46.664627
1.834e-008,-102.97119,-31.361992
1.835e-008,-102.93147,-16.059547
1.836e-008,-102.91436,-0.76715779
1.837e-008,-102.9196,14.503936
1.838e-008,-102.94694,29.742811
1.839e-008,-102.99611,44.938751
1.84e-008,-103.06704,60.078911
1.841e-008,-103.15938,75.151588
1.842e-008,-103.27295,90.142372
1.843e-008,-103.40741,105.03716
1.844e-008,-103.56245,119.81908
1.845e-008,-103.73734,134.47086
1.846e-008,-103.93132,148.97284
1.847e-008,-104.14319,163.304
1.848e-008,-104.37148,177.44061
1.849e-008,-104.61377,-168.64172
1.85e-008,-104.86732,-154.96996
1.851e-008,-105.12804,-141.57001
1.852e-008,-105.3909,-128.46913
1.853e-008,-105.64935,-115.68957
1.854e-008,-105.89559,-103.24857
1.855e-008,-106.12009,-91.153244
1.856e-008,-106.31219,-79.397812
1.857e-008,-106.4608,-67.95562
1.858e-008,-106.55514,-56.779438
1.859e-008,-106.58597,-45.800842
1.86e-008,-106.54701,-34.931316
1.861e-008,-106.43607,-24.073772
1.862e-008,-106.25494,-13.128695
1.863e-008,-106.00996,-2.0088496
1.864e-008,-105.70969,9.3560352
1.865e-008,-105.36497,21.015484
1.866e-008,-104.98676,32.995499
1.867e-008,-104.58566,45.30484
1.868e-008,-104.17082,57.937389
1.869e-008,-103.75022,70.877113
1.87e-008,-103.33013,84.101639
1.871e-008,-102.91561,97.586388
1.872e-008,-102.5103,111.30643
1.873e-008,-102.11704,125.23567
1.874e-008,-101.73779,139.35115
1.875e-008,-101.37388,153.63129
1.876e-008,-101.02621,168.05672
1.877e-008,-100.69528,-177.39027
1.878e-008,-100.38132,-162.7251
1.879e-008,-100.08438,-147.96164
1.88e-008,-99.804329,-133.11153
1.881e-008,-99.541008,-118.18599
1.882e-008,-99.294075,-103.19386
1.883e-008,-99.063225,-88.143471
1.884e-008,-98.848099,-73.042076
1.885e-008,-98.648293,-57.895821
1.886e-008,-98.463417,-42.710182
1.887e-008,-98.29303,-27.490211
1.888e-008,-98.136803,-12.239675
1.889e-008,-97.994301,3.03739
1.89e-008,-97.865128,18.338245
1.891e-008,-97.748886,33.659832
1.892e-008,-97.645241,48.999989
1.893e-008,-97.55381,64.356743
1.894e-008,-97.474266,79.728584
1.895e-008,-97.406227,95.113983
1.896e-008,-97.349426,110.51205
1.897e-008,-97.30349,125.92191
1.898e-008,-97.268173,141.34305
1.899e-008,-97.243134,156.77509
1.9e-008,-97.228134,172.21803
1.901e-008,-97.222893,-172.32832
1.902e-008,-97.22718,-156.86337
1.903e-008,-97.240707,-141.38675
1.904e-008,-97.263321,-125.89809
1.905e-008,-97.294769,-110.39634
1.906e-008,-97.334862,-94.880676
1.907e-008,-97.383423,-79.349968
1.908e-008,-97.440292,-63.803112
1.909e-008,-97.505295,-48.238529
1.91e-008,-97.578331,-32.654968
1.911e-008,-97.659241,-17.050779
1.912e-008,-97.747955,-1.4244037
1.913e-008,-97.84436,14.226244
1.914e-008,-97.948402,29.902876
1.915e-008,-98.059998,45.607498
1.916e-008,-98.179153,61.342201
1.917e-008,-98.305756,77.109314
1.918e-008,-98.439865,92.910606
1.919e-008,-98.581459,108.74887
1.92e-008,-98.730537,124.62594
1.921e-008,-98.887115,140.54465
1.922e-008,-99.051254,156.50716
1.923e-008,-99.223007,172.51604
1.924e-008,-99.402374,-171.42609
1.925e-008,-99.589493,-155.31668
1.926e-008,-99.78437,-139.15326
1.927e-008,-99.987106,-122.93295
1.928e-008,-100.19781,-106.65312
1.929e-008,-100.41655,-90.31086
1.93e-008,-100.64339,-73.903618
1.931e-008,-100.87848,-57.428143
1.932e-008,-101.12193,-40.881794
1.933e-008,-101.37378,-24.260925
1.934e-008,-101.63416,-7.5630336
1.935e-008,-101.90321,9.2157068
1.936e-008,-102.18099,26.078527
1.937e-008,-102.46767,43.029251
1.938e-008,-102.7633,60.071732
1.939e-008,-103.06802,77.210182
1.94e-008,-103.38195,94.449081
1.941e-008,-103.70526,111.79343
1.942e-008,-104.03793,129.24873
1.943e-008,-104.3801,146.82083
1.944e-008,-104.7319,164.51674
1.945e-008,-105.09332,-177.65604
1.946e-008,-105.46439,-159.6888
1.947e-008,-105.845,-141.57216
1.948e-008,-106.23508,-123.29415
1.949e-008,-106.63428,-104.84279
1.95e-008,-107.04195,-86.202499
1.951e-008,-107.45745,-67.357086
1.952e-008,-107.87946,-48.287064
1.953e-008,-108.30634,-28.970749
1.954e-008,-108.73536,-9.3862524
1.955e-008,-109.1634,10.491769
1.956e-008,-109.58593,30.688347
1.957e-008,-109.99681,51.226997
1.958e-008,-110.38816,72.127617
1.959e-008,-110.75111,93.401001
1.96e-008,-111.07443,115.04443
1.961e-008,-111.3461,137.03598
1.962e-008,-111.55393,159.33276
1.963e-008,-111.687,-178.13847
1.964e-008,-111.73712,-155.47012
1.965e-008,-111.7001,-132.77274
1.966e-008,-111.57706,-110.1609
1.967e-008,-111.37371,-87.742393
1.968e-008,-111.1001,-65.601196
1.969e-008,-110.76807,-43.801968
1.97e-008,-110.39014,-22.380575
1.971e-008,-109.97899,-1.3496187
1.972e-008,-109.54543,19.295704
1.973e-008,-109.09893,39.570042
1.974e-008,-108.64645,59.498619
1.975e-008,-108.19437,79.108353
1.976e-008,-107.74704,98.427856
1.977e-008,-107.30752,117.48518
1.978e-008,-106.87838,136.30609
1.979e-008,-106.46131,154.91441
1.98e-008,-106.05739,173.33209
1.981e-008,-105.66744,-168.42128
1.982e-008,-105.29158,-150.3286
1.983e-008,-104.93024,-132.3735
1.984e-008,-104.58349,-114.5435
1.985e-008,-104.25101,-96.825836
1.986e-008,-103.93279,-79.209335
1.987e-008,-103.62848,-61.68507
1.988e-008,-103.33796,-44.244328
1.989e-008,-103.06078,-26.878906
1.99e-008,-102.79662,-9.5820627
1.991e-008,-102.54516,7.6520677
1.992e-008,-102.30618,24.829475
1.993e-008,-102.07924,41.955307
1.994e-008,-101.86393,59.033966
1.995e-008,-101.66006,76.069557
1.996e-008,-101.46727,93.06633
1.997e-008,-101.28527,110.02746
1.998e-008,-101.11366,126.95651
1.999e-008,-100.95224,143.85606
2e-008,-100.80075,160.72871
END

