!CSV A.01.01
!Keysight Technologies,N5227B,US58420762,A.13.80.08
!Date: Monday, November 20, 2023 15:53:14
!Source: Standard

BEGIN CH1_DATA
Freq(Hz),S21(DB),S21(DEG)
3000000000,-58.289307,47.59441
3003000000,-58.44413,31.465183
3006000000,-58.287014,15.243728
3009000000,-58.371494,-2.122709
3012000000,-58.420055,-16.883171
3015000000,-58.57061,-33.302406
3018000000,-58.497368,-49.546532
3021000000,-58.530144,-65.117279
3024000000,-58.487045,-82.10611
3027000000,-58.675301,-97.397705
3030000000,-58.583725,-114.16164
3033000000,-58.66061,-129.48251
3036000000,-58.619053,-145.81053
3039000000,-58.646366,-161.26852
3042000000,-58.679958,-176.71118
3045000000,-58.633553,166.3287
3048000000,-58.736042,150.68892
3051000000,-58.770531,134.77185
3054000000,-58.921352,119.61501
3057000000,-58.924164,103.38934
3060000000,-58.991886,88.596611
3063000000,-58.852192,72.799324
3066000000,-58.600136,57.228233
3069000000,-58.667114,42.03553
3072000000,-58.559937,25.191805
3075000000,-58.558674,10.864941
3078000000,-58.731804,-7.1212187
3081000000,-58.724449,-22.718632
3084000000,-58.77269,-38.722256
3087000000,-58.834671,-55.083767
3090000000,-58.794945,-71.269547
3093000000,-58.834244,-86.511078
3096000000,-58.964642,-102.63885
3099000000,-58.750896,-117.44122
3102000000,-58.790653,-132.7363
3105000000,-58.847363,-148.38004
3108000000,-58.719284,-163.97101
3111000000,-59.011993,-179.64864
3114000000,-58.910233,166.12987
3117000000,-58.807835,150.62143
3120000000,-58.825417,134.99442
3123000000,-58.39996,119.29217
3126000000,-58.207893,102.11391
3129000000,-58.292439,85.293732
3132000000,-58.058014,69.385162
3135000000,-58.227558,53.4044
3138000000,-58.349144,37.683929
3141000000,-58.195686,21.709723
3144000000,-58.237984,5.7834849
3147000000,-58.155182,-10.830349
3150000000,-58.279366,-27.761488
3153000000,-58.186691,-43.091084
3156000000,-58.118584,-59.907234
3159000000,-58.223152,-77.302696
3162000000,-58.574905,-93.468704
3165000000,-58.789799,-108.21329
3168000000,-58.89595,-122.3703
3171000000,-58.755688,-137.43817
3174000000,-58.480621,-152.94739
3177000000,-58.160049,-168.89613
3180000000,-58.336266,174.32697
3183000000,-58.39064,158.45036
3186000000,-58.541576,142.75385
3189000000,-58.523819,128.44424
3192000000,-58.443478,113.10532
3195000000,-58.168938,97.447044
3198000000,-58.183743,80.090065
3201000000,-58.120285,63.464588
3204000000,-58.118046,46.589859
3207000000,-58.10054,31.157537
3210000000,-58.252953,15.654548
3213000000,-58.140835,-2.445991
3216000000,-58.066669,-16.899918
3219000000,-58.120255,-34.125511
3222000000,-58.125557,-48.661285
3225000000,-58.08926,-64.364754
3228000000,-58.156788,-81.286072
3231000000,-58.206451,-97.076912
3234000000,-58.203419,-114.2259
3237000000,-57.969616,-128.97197
3240000000,-58.204323,-146.46281
3243000000,-58.60635,-160.95506
3246000000,-58.574627,-175.62233
3249000000,-58.249493,167.53777
3252000000,-58.157166,152.14813
3255000000,-58.379631,136.91385
3258000000,-58.545578,119.43047
3261000000,-58.589951,104.75052
3264000000,-58.612297,89.361961
3267000000,-58.550747,75.375298
3270000000,-58.385921,61.310566
3273000000,-58.222588,45.435474
3276000000,-58.043282,28.171495
3279000000,-57.948967,10.520634
3282000000,-58.20306,-4.9512553
3285000000,-58.043583,-22.072817
3288000000,-58.183739,-35.043034
3291000000,-58.103062,-52.178257
3294000000,-57.880192,-68.803658
3297000000,-58.234314,-83.667366
3300000000,-58.334682,-99.962952
3303000000,-58.206219,-115.17341
3306000000,-58.056103,-132.50726
3309000000,-58.127701,-148.22255
3312000000,-58.143471,-164.96915
3315000000,-58.244316,-179.27129
3318000000,-58.066456,165.8653
3321000000,-58.006844,149.81387
3324000000,-57.776333,133.24184
3327000000,-57.740181,115.91259
3330000000,-58.060822,100.70118
3333000000,-58.095238,84.876091
3336000000,-57.906712,68.780685
3339000000,-57.978783,52.273857
3342000000,-57.817993,35.931717
3345000000,-57.595417,21.035437
3348000000,-57.971401,2.6671367
3351000000,-58.017971,-12.808207
3354000000,-58.030857,-27.889799
3357000000,-58.249264,-42.956223
3360000000,-58.350304,-59.518227
3363000000,-58.420155,-74.876831
3366000000,-58.324181,-92.238953
3369000000,-58.36734,-107.94958
3372000000,-58.5994,-122.23145
3375000000,-58.468407,-138.92238
3378000000,-58.517723,-151.98639
3381000000,-58.231693,-167.95589
3384000000,-58.398811,175.25145
3387000000,-58.20219,159.718
3390000000,-58.407379,143.19096
3393000000,-58.410042,128.83672
3396000000,-58.591003,111.19546
3399000000,-58.666241,98.991051
3402000000,-58.495003,84.257179
3405000000,-58.169617,68.716827
3408000000,-58.076134,51.936283
3411000000,-58.033627,35.669418
3414000000,-58.011845,20.465473
3417000000,-57.91246,4.2526426
3420000000,-57.862392,-10.916366
3423000000,-57.789612,-26.469318
3426000000,-57.559856,-44.387066
3429000000,-57.560493,-61.266052
3432000000,-57.540291,-76.734901
3435000000,-57.504581,-92.745079
3438000000,-57.500996,-109.3057
3441000000,-57.801594,-125.02517
3444000000,-57.787857,-140.68019
3447000000,-57.689564,-156.85736
3450000000,-57.818611,-172.57201
3453000000,-57.718906,171.12987
3456000000,-57.457359,155.78963
3459000000,-57.464401,138.79973
3462000000,-57.607544,120.6558
3465000000,-57.943722,105.14458
3468000000,-58.102707,90.78759
3471000000,-58.366325,76.668579
3474000000,-58.197266,60.964474
3477000000,-57.822701,46.115341
3480000000,-57.919693,27.880108
3483000000,-57.642525,13.258865
3486000000,-57.947083,-2.9710939
3489000000,-57.971329,-17.124687
3492000000,-57.896416,-33.07896
3495000000,-57.666237,-48.484787
3498000000,-57.65406,-65.983185
3501000000,-57.633617,-82.345047
3504000000,-57.979099,-96.799995
3507000000,-57.640411,-113.89677
3510000000,-57.809452,-129.65228
3513000000,-57.545273,-143.87259
3516000000,-57.470844,-161.18147
3519000000,-57.617977,-176.47215
3522000000,-57.602573,167.43518
3525000000,-57.739052,152.45328
3528000000,-57.875885,136.19466
3531000000,-57.749359,120.70049
3534000000,-57.754658,106.18045
3537000000,-57.503944,90.65831
3540000000,-57.376259,75.017853
3543000000,-57.173992,58.06971
3546000000,-57.112389,42.639412
3549000000,-56.930691,26.092915
3552000000,-57.005802,9.2062798
3555000000,-56.896156,-6.8725896
3558000000,-56.932659,-23.881409
3561000000,-56.90406,-39.486431
3564000000,-56.981701,-56.999744
3567000000,-57.000221,-72.727615
3570000000,-57.148186,-89.577438
3573000000,-56.787209,-105.27226
3576000000,-57.053226,-122.69936
3579000000,-57.310883,-137.94583
3582000000,-57.333668,-154.23152
3585000000,-57.454376,-169.6396
3588000000,-57.481598,177.00734
3591000000,-57.657238,160.35034
3594000000,-57.483643,143.74249
3597000000,-57.612671,126.18349
3600000000,-57.698471,111.8512
3603000000,-57.919777,96.219681
3606000000,-57.891281,81.525032
3609000000,-57.918133,66.161301
3612000000,-57.984016,52.275799
3615000000,-57.844166,36.969788
3618000000,-57.76786,22.160154
3621000000,-57.36562,5.0949779
3624000000,-57.597321,-10.971264
3627000000,-57.430141,-26.302
3630000000,-57.579231,-42.310646
3633000000,-57.644958,-58.803368
3636000000,-57.593361,-71.735291
3639000000,-57.276428,-86.181618
3642000000,-57.230404,-102.4271
3645000000,-57.075508,-119.5363
3648000000,-57.050255,-135.9099
3651000000,-56.926971,-151.99342
3654000000,-56.990551,-167.82268
3657000000,-56.651062,177.3783
3660000000,-56.669754,160.12575
3663000000,-56.699249,142.87703
3666000000,-56.656815,126.26995
3669000000,-56.734585,110.15377
3672000000,-56.599846,94.249413
3675000000,-56.568615,78.417755
3678000000,-56.465622,62.05125
3681000000,-56.449348,44.5313
3684000000,-56.454697,27.718817
3687000000,-56.620338,11.779025
3690000000,-56.657288,-5.2971711
3693000000,-56.736324,-21.465101
3696000000,-56.878937,-36.632122
3699000000,-57.150414,-53.167545
3702000000,-57.178062,-69.000481
3705000000,-57.231979,-83.773254
3708000000,-57.126518,-98.335144
3711000000,-57.246037,-114.62296
3714000000,-57.359123,-129.06325
3717000000,-57.3032,-144.64302
3720000000,-57.072506,-161.12016
3723000000,-57.244137,-177.53999
3726000000,-57.184143,166.4873
3729000000,-57.264641,152.06261
3732000000,-57.210144,136.99802
3735000000,-57.344704,122.20583
3738000000,-57.13541,107.66499
3741000000,-56.881023,93.257393
3744000000,-56.550713,76.811394
3747000000,-56.455414,59.032711
3750000000,-56.406269,42.193634
3753000000,-56.525799,25.882608
3756000000,-56.459885,10.952621
3759000000,-56.352489,-5.9543176
3762000000,-56.082134,-21.492205
3765000000,-56.080616,-38.629288
3768000000,-56.26347,-55.837795
3771000000,-56.451042,-73.044594
3774000000,-56.315395,-87.38636
3777000000,-56.245445,-103.49052
3780000000,-56.142948,-120.08521
3783000000,-56.157295,-136.7467
3786000000,-56.201214,-154.43213
3789000000,-56.096161,-169.34807
3792000000,-56.205547,174.41049
3795000000,-56.283695,156.11214
3798000000,-56.600777,140.72511
3801000000,-56.593052,124.65438
3804000000,-56.833172,107.89426
3807000000,-56.81345,94.632248
3810000000,-56.815678,79.060364
3813000000,-56.787216,63.667793
3816000000,-56.977085,47.178684
3819000000,-57.022312,32.115658
3822000000,-56.719154,16.473576
3825000000,-56.647976,-0.13370609
3828000000,-56.995899,-14.352471
3831000000,-56.865871,-30.05744
3834000000,-56.840317,-46.02541
3837000000,-56.892071,-61.601772
3840000000,-56.934441,-77.442276
3843000000,-56.842796,-93.461479
3846000000,-56.76091,-107.74512
3849000000,-56.446194,-124.29746
3852000000,-56.339409,-141.79353
3855000000,-56.397705,-158.31273
3858000000,-56.592365,-172.45096
3861000000,-56.605251,171.71608
3864000000,-56.49334,154.57962
3867000000,-56.331272,138.63161
3870000000,-56.327168,121.71453
3873000000,-56.237133,106.11308
3876000000,-56.177963,90.722878
3879000000,-56.194965,73.691658
3882000000,-56.134815,57.686001
3885000000,-56.266266,41.049572
3888000000,-56.37048,23.240118
3891000000,-56.501949,8.2762032
3894000000,-56.49707,-7.826807
3897000000,-56.414375,-22.748554
3900000000,-56.229588,-38.580154
3903000000,-56.498245,-56.498924
3906000000,-56.467571,-71.766434
3909000000,-56.701118,-88.481903
3912000000,-56.578678,-103.73613
3915000000,-57.048855,-118.40813
3918000000,-56.828838,-132.91312
3921000000,-56.766479,-148.45186
3924000000,-56.673107,-165.82344
3927000000,-56.567993,177.28307
3930000000,-56.733448,160.88083
3933000000,-56.764156,145.67595
3936000000,-56.982254,130.0444
3939000000,-57.006916,115.84961
3942000000,-57.091988,101.39183
3945000000,-56.854465,85.663292
3948000000,-56.820576,69.455551
3951000000,-56.591316,52.981312
3954000000,-56.697578,38.429745
3957000000,-56.540871,22.586473
3960000000,-56.706528,6.1485591
3963000000,-56.459709,-9.0912991
3966000000,-56.218376,-24.538893
3969000000,-56.167225,-41.686668
3972000000,-55.916622,-58.191601
3975000000,-56.045345,-74.089241
3978000000,-55.936779,-91.1866
3981000000,-55.996948,-108.76385
3984000000,-56.336472,-124.0129
3987000000,-56.397701,-139.92111
3990000000,-56.132771,-155.1581
3993000000,-56.098007,-171.37189
3996000000,-56.2351,172.60558
3999000000,-56.10498,156.75568
4002000000,-56.060024,141.09285
4005000000,-55.996513,124.60247
4008000000,-55.912632,106.29615
4011000000,-56.166687,91.080582
4014000000,-55.911247,75.001083
4017000000,-56.184593,58.048332
4020000000,-56.019531,42.840992
4023000000,-55.993,26.350639
4026000000,-56.030247,10.096419
4029000000,-56.056744,-7.1441693
4032000000,-56.415215,-24.040241
4035000000,-56.284252,-39.220863
4038000000,-56.399593,-55.060303
4041000000,-56.4776,-70.125946
4044000000,-56.582016,-85.36248
4047000000,-56.711742,-102.67247
4050000000,-56.514858,-117.08969
4053000000,-56.514317,-133.05905
4056000000,-56.648918,-149.51399
4059000000,-56.336777,-165.35109
4062000000,-56.557537,178.4164
4065000000,-56.759247,163.21571
4068000000,-56.955009,146.78796
4071000000,-56.966454,132.3007
4074000000,-57.038841,116.59998
4077000000,-56.711788,101.70535
4080000000,-56.581913,83.668755
4083000000,-56.640541,69.193817
4086000000,-56.613331,51.729206
4089000000,-56.739113,36.687122
4092000000,-56.682899,19.579811
4095000000,-56.529602,3.7847614
4098000000,-56.498001,-11.505452
4101000000,-56.436066,-27.092541
4104000000,-56.399178,-44.350582
4107000000,-56.579269,-61.071125
4110000000,-57.090168,-78.56485
4113000000,-57.009056,-92.108505
4116000000,-56.914024,-105.57849
4119000000,-56.780102,-122.69048
4122000000,-56.691788,-139.38969
4125000000,-56.49181,-156.14201
4128000000,-56.761028,-172.27716
4131000000,-57.001244,171.3295
4134000000,-57.124447,156.41075
4137000000,-56.806564,139.84186
4140000000,-57.033077,123.91943
4143000000,-57.031815,108.14883
4146000000,-57.079773,91.510757
4149000000,-56.887074,76.06472
4152000000,-56.959938,59.66951
4155000000,-57.301098,44.543243
4158000000,-57.331512,26.560091
4161000000,-57.603954,13.86692
4164000000,-57.463032,-2.8753092
4167000000,-57.440472,-15.367526
4170000000,-57.399162,-31.480551
4173000000,-57.297878,-46.653168
4176000000,-57.185703,-63.516026
4179000000,-57.180485,-78.90477
4182000000,-57.068111,-95.903633
4185000000,-57.00745,-110.97359
4188000000,-57.020573,-126.9771
4191000000,-56.921974,-143.79706
4194000000,-57.109367,-158.73068
4197000000,-56.950188,-174.87141
4200000000,-57.075809,169.12129
4203000000,-56.841713,153.16684
4206000000,-56.83889,136.98863
4209000000,-56.671234,120.05917
4212000000,-56.636993,104.14906
4215000000,-56.672546,87.774734
4218000000,-56.574165,70.658951
4221000000,-56.878891,55.07436
4224000000,-56.931587,36.38427
4227000000,-57.226601,21.804047
4230000000,-57.106441,5.1045117
4233000000,-57.283825,-10.498896
4236000000,-56.980656,-26.134226
4239000000,-57.451344,-42.22472
4242000000,-57.286236,-58.221367
4245000000,-57.451126,-72.175194
4248000000,-57.327942,-87.946129
4251000000,-57.359188,-102.57746
4254000000,-57.316734,-120.03309
4257000000,-57.280735,-137.47087
4260000000,-57.309338,-153.20763
4263000000,-57.525101,-169.46455
4266000000,-57.679802,175.94273
4269000000,-57.738819,162.15436
4272000000,-57.83054,146.16988
4275000000,-57.548626,129.02374
4278000000,-57.744991,114.12173
4281000000,-57.847401,98.33757
4284000000,-57.897205,82.262413
4287000000,-57.817291,65.593155
4290000000,-57.478909,51.896664
4293000000,-57.752972,36.84996
4296000000,-57.636223,19.700872
4299000000,-57.636486,4.7102346
4302000000,-57.485455,-10.935737
4305000000,-57.491875,-26.003429
4308000000,-57.356983,-41.504059
4311000000,-57.345886,-58.85844
4314000000,-57.430771,-75.387238
4317000000,-57.110626,-89.005112
4320000000,-57.464436,-103.60186
4323000000,-57.017986,-121.02048
4326000000,-56.895752,-139.46681
4329000000,-57.045715,-155.40515
4332000000,-57.116886,-171.6813
4335000000,-57.254826,171.99745
4338000000,-57.205124,157.14494
4341000000,-57.123112,139.92514
4344000000,-57.062775,126.01457
4347000000,-57.197777,108.76785
4350000000,-57.249355,91.670937
4353000000,-57.13681,74.148865
4356000000,-57.175465,58.257484
4359000000,-57.247772,43.648277
4362000000,-57.476574,27.660055
4365000000,-57.674812,12.857661
4368000000,-57.62009,-4.5263095
4371000000,-57.90271,-18.6504
4374000000,-57.701759,-34.149323
4377000000,-57.584026,-49.205345
4380000000,-57.583656,-65.08371
4383000000,-57.41991,-81.967888
4386000000,-57.493519,-97.991615
4389000000,-57.73661,-113.11463
4392000000,-57.554802,-128.17018
4395000000,-57.476471,-144.78317
4398000000,-57.710476,-159.75154
4401000000,-57.613392,-174.79904
4404000000,-57.557304,168.37029
4407000000,-57.643322,153.08379
4410000000,-57.397617,136.88739
4413000000,-57.390682,120.73344
4416000000,-57.290806,104.65766
4419000000,-57.55402,89.014946
4422000000,-57.392872,73.957077
4425000000,-57.596542,59.145874
4428000000,-57.159447,41.270168
4431000000,-57.213013,25.959507
4434000000,-57.113277,9.5984297
4437000000,-57.043983,-6.3206401
4440000000,-57.146915,-23.689854
4443000000,-57.035477,-38.790569
4446000000,-57.169914,-54.604626
4449000000,-57.073391,-70.319855
4452000000,-56.914356,-87.623482
4455000000,-56.909935,-103.78657
4458000000,-56.901394,-119.22601
4461000000,-56.829529,-136.4299
4464000000,-57.013569,-153.03946
4467000000,-56.816216,-169.94859
4470000000,-56.933121,174.6813
4473000000,-57.112247,157.21071
4476000000,-57.038177,141.57918
4479000000,-57.19582,125.66653
4482000000,-57.363937,109.43492
4485000000,-57.36129,94.341217
4488000000,-57.374046,80.077812
4491000000,-57.410408,63.715931
4494000000,-57.301548,45.423302
4497000000,-57.29771,28.803082
4500000000,-57.452309,14.15088
4503000000,-57.662964,-2.6674361
4506000000,-57.701893,-17.766817
4509000000,-57.770851,-33.084404
4512000000,-57.691021,-47.97187
4515000000,-57.665005,-64.49868
4518000000,-57.789845,-80.172981
4521000000,-57.85796,-95.798294
4524000000,-57.974361,-110.75338
4527000000,-57.670059,-127.35105
4530000000,-57.943844,-141.36429
4533000000,-57.595581,-156.43552
4536000000,-57.473289,-174.40703
4539000000,-57.549538,170.68614
4542000000,-57.450466,154.18665
4545000000,-57.392349,138.7023
4548000000,-57.431824,122.663
4551000000,-57.138756,106.45397
4554000000,-57.111717,88.436813
4557000000,-57.310936,72.120293
4560000000,-57.57209,54.71447
4563000000,-57.521984,40.443531
4566000000,-57.604149,25.237446
4569000000,-57.561047,9.8442907
4572000000,-57.39814,-7.2863998
4575000000,-57.193062,-23.433346
4578000000,-57.486725,-39.004745
4581000000,-57.399235,-55.336529
4584000000,-57.602104,-74.26944
4587000000,-57.759926,-88.946465
4590000000,-57.95219,-104.03636
4593000000,-57.788593,-119.05793
4596000000,-57.526825,-134.40688
4599000000,-57.671516,-151.96536
4602000000,-57.815662,-166.1649
4605000000,-57.787769,175.17802
4608000000,-57.936081,160.60274
4611000000,-58.122952,143.87694
4614000000,-58.158623,129.09036
4617000000,-57.92057,112.91744
4620000000,-58.281239,98.048363
4623000000,-57.927082,82.513367
4626000000,-57.714169,66.855644
4629000000,-57.813942,49.567055
4632000000,-57.804478,33.373932
4635000000,-57.83448,16.421137
4638000000,-58.347389,0.33672175
4641000000,-58.216602,-14.435659
4644000000,-58.454262,-30.996311
4647000000,-58.352966,-45.323898
4650000000,-58.071438,-62.548386
4653000000,-58.287857,-76.986473
4656000000,-58.127018,-92.399918
4659000000,-58.028744,-107.41449
4662000000,-58.177734,-124.52641
4665000000,-58.218414,-141.13113
4668000000,-58.134388,-158.10378
4671000000,-58.268509,-173.41148
4674000000,-58.463245,172.96257
4677000000,-58.020016,156.53059
4680000000,-58.366711,140.78201
4683000000,-58.143742,123.4082
4686000000,-58.060146,107.98844
4689000000,-58.059727,92.962807
4692000000,-58.072079,77.370728
4695000000,-58.010559,59.359127
4698000000,-57.969738,42.883575
4701000000,-58.044769,28.33058
4704000000,-58.227077,12.429762
4707000000,-58.011654,-4.481461
4710000000,-58.229076,-19.909637
4713000000,-58.223198,-36.859318
4716000000,-58.784271,-53.128609
4719000000,-58.301342,-68.003845
4722000000,-58.407497,-83.734344
4725000000,-58.385529,-98.347061
4728000000,-58.382717,-115.91983
4731000000,-58.422295,-129.48372
4734000000,-58.616459,-146.31595
4737000000,-58.26244,-162.20346
4740000000,-58.588318,-176.9178
4743000000,-58.329041,167.74706
4746000000,-58.405739,149.86052
4749000000,-58.365284,134.13747
4752000000,-58.078304,119.48136
4755000000,-58.316113,101.98756
4758000000,-58.114937,85.506142
4761000000,-58.486671,69.817574
4764000000,-58.322727,53.148113
4767000000,-58.230995,38.385799
4770000000,-58.564327,21.138842
4773000000,-58.763405,5.3637466
4776000000,-58.75853,-9.8442135
4779000000,-58.594543,-26.888485
4782000000,-58.417233,-42.162354
4785000000,-58.30703,-57.217697
4788000000,-58.461658,-74.18972
4791000000,-58.417107,-90.811501
4794000000,-58.328312,-105.95741
4797000000,-58.714546,-120.75828
4800000000,-58.52018,-137.69452
4803000000,-58.453953,-155.51405
4806000000,-58.712589,-171.35046
4809000000,-58.947922,175.17139
4812000000,-58.819294,156.8129
4815000000,-58.82605,142.40759
4818000000,-59.089592,127.67782
4821000000,-58.915955,111.8082
4824000000,-58.829929,96.344109
4827000000,-58.677555,80.437584
4830000000,-58.922298,62.355721
4833000000,-58.880013,46.378204
4836000000,-59.160713,31.419147
4839000000,-59.214466,15.734977
4842000000,-59.229237,1.8486121
4845000000,-59.065575,-12.85883
4848000000,-59.180584,-27.738722
4851000000,-59.083694,-44.194263
4854000000,-59.208065,-62.373795
4857000000,-58.722939,-78.925323
4860000000,-58.593616,-95.17691
4863000000,-59.101776,-111.65929
4866000000,-59.47319,-127.58186
4869000000,-58.962811,-142.18379
4872000000,-59.354172,-156.47632
4875000000,-59.484085,-169.90135
4878000000,-59.807644,171.26099
4881000000,-59.452637,161.11342
4884000000,-59.123676,143.69559
4887000000,-58.437595,124.47125
4890000000,-58.932198,108.41614
4893000000,-58.828754,92.506927
4896000000,-58.701328,74.699577
4899000000,-58.731945,58.507202
4902000000,-58.944069,44.67564
4905000000,-58.503777,30.298798
4908000000,-58.536316,13.726039
4911000000,-58.479588,-3.3429527
4914000000,-58.614723,-21.392746
4917000000,-58.76004,-37.667168
4920000000,-58.546997,-55.015728
4923000000,-58.762352,-70.052269
4926000000,-58.730232,-86.783035
4929000000,-59.275169,-102.66
4932000000,-59.271091,-120.80807
4935000000,-59.143677,-133.76277
4938000000,-59.339352,-146.41479
4941000000,-59.17448,-163.70392
4944000000,-58.84277,-177.05389
4947000000,-59.079311,165.68568
4950000000,-59.199165,148.08765
4953000000,-59.011642,132.69868
4956000000,-59.074966,115.2027
4959000000,-59.286007,97.58564
4962000000,-59.577171,82.859428
4965000000,-59.376858,69.483627
4968000000,-59.938732,52.246208
4971000000,-59.317741,38.830994
4974000000,-59.485619,20.399216
4977000000,-59.651058,7.8916869
4980000000,-59.800159,-8.0889416
4983000000,-59.345947,-24.222837
4986000000,-59.274143,-39.439426
4989000000,-59.112839,-56.832531
4992000000,-59.234886,-71.959412
4995000000,-59.457821,-90.315941
4998000000,-59.345509,-104.38547
5001000000,-59.504398,-121.77657
5004000000,-59.254665,-139.47137
5007000000,-59.200909,-152.69296
5010000000,-59.154663,-170.47623
5013000000,-59.398804,174.91499
5016000000,-59.487053,158.22388
5019000000,-59.290806,142.59567
5022000000,-59.240166,126.6843
5025000000,-59.567661,111.37254
5028000000,-59.112831,96.047951
5031000000,-59.371933,78.320442
5034000000,-59.361629,63.158104
5037000000,-59.479874,47.685799
5040000000,-59.753559,32.97242
5043000000,-59.335484,16.217815
5046000000,-59.432297,-1.2262907
5049000000,-59.490635,-17.817976
5052000000,-60.037731,-32.835926
5055000000,-59.773819,-48.51429
5058000000,-60.244045,-61.377583
5061000000,-59.785435,-79.719955
5064000000,-59.919441,-94.881165
5067000000,-59.840008,-110.064
5070000000,-59.882076,-126.85444
5073000000,-60.368244,-140.63416
5076000000,-60.0303,-158.05585
5079000000,-60.022968,-168.9444
5082000000,-60.063068,173.62334
5085000000,-59.628326,156.57481
5088000000,-59.662186,139.14722
5091000000,-59.609768,122.65601
5094000000,-59.834877,105.79166
5097000000,-60.145748,93.058266
5100000000,-59.996181,79.077591
5103000000,-59.503307,63.124935
5106000000,-59.849018,45.442623
5109000000,-59.091076,30.672745
5112000000,-59.115654,12.36542
5115000000,-59.080498,-4.5915294
5118000000,-59.554131,-20.20582
5121000000,-59.710323,-35.513222
5124000000,-59.70652,-50.019222
5127000000,-59.630463,-67.354637
5130000000,-59.653301,-83.492081
5133000000,-59.502533,-100.39081
5136000000,-59.902946,-113.93384
5139000000,-59.822147,-132.10942
5142000000,-59.7887,-147.51402
5145000000,-59.106316,-165.06517
5148000000,-59.37225,176.81725
5151000000,-60.098232,160.39096
5154000000,-59.803192,146.61324
5157000000,-60.110149,128.77168
5160000000,-60.387577,114.03214
5163000000,-60.168774,95.754608
5166000000,-60.197414,83.3815
5169000000,-60.445663,64.059479
5172000000,-60.700314,50.964684
5175000000,-60.484627,37.497768
5178000000,-60.566856,18.316574
5181000000,-60.675934,5.3657842
5184000000,-60.581306,-12.080468
5187000000,-60.80793,-27.856453
5190000000,-60.74902,-41.117161
5193000000,-60.540215,-56.476143
5196000000,-60.997005,-72.457596
5199000000,-60.988354,-87.697021
5202000000,-60.699867,-104.41985
5205000000,-60.679401,-118.77915
5208000000,-60.939907,-134.32954
5211000000,-60.785206,-150.98619
5214000000,-60.413143,-165.35344
5217000000,-60.14735,178.562
5220000000,-60.654335,162.16774
5223000000,-60.41737,147.4191
5226000000,-60.484772,131.87015
5229000000,-60.484917,115.93611
5232000000,-60.291,99.282822
5235000000,-60.201805,83.745255
5238000000,-60.651909,67.573074
5241000000,-60.339005,49.469006
5244000000,-60.246582,35.607063
5247000000,-59.712658,18.173975
5250000000,-60.601894,-0.88961005
5253000000,-60.851051,-17.217552
5256000000,-60.756817,-30.734093
5259000000,-60.873615,-44.952473
5262000000,-60.53886,-59.207748
5265000000,-60.278622,-76.169693
5268000000,-60.590275,-95.865326
5271000000,-60.239513,-112.69537
5274000000,-61.066555,-125.93366
5277000000,-61.404758,-140.61061
5280000000,-61.139145,-157.815
5283000000,-60.950634,-172.14755
5286000000,-60.829872,172.29724
5289000000,-61.021408,158.05775
5292000000,-61.34417,142.44933
5295000000,-61.245548,122.58012
5298000000,-61.313648,107.5468
5301000000,-61.18784,94.097244
5304000000,-61.158527,76.750679
5307000000,-61.629185,61.094166
5310000000,-61.613598,45.178738
5313000000,-61.207233,33.315594
5316000000,-61.439594,15.084408
5319000000,-61.684677,1.2750304
5322000000,-61.631996,-13.14856
5325000000,-60.906509,-28.037291
5328000000,-60.303795,-46.159019
5331000000,-60.809658,-64.767868
5334000000,-60.897812,-79.727776
5337000000,-60.738197,-94.481346
5340000000,-60.889774,-111.39858
5343000000,-60.91613,-125.77585
5346000000,-60.674618,-144.55777
5349000000,-61.328629,-157.25919
5352000000,-60.374821,-174.46928
5355000000,-61.246635,172.46735
5358000000,-60.579102,154.79755
5361000000,-60.553387,139.71866
5364000000,-61.061069,120.50565
5367000000,-60.982681,101.18322
5370000000,-60.572838,87.340904
5373000000,-61.066807,71.983536
5376000000,-60.752731,57.620945
5379000000,-60.806614,38.375141
5382000000,-60.769039,27.09095
5385000000,-60.211903,7.8474135
5388000000,-60.80378,-8.4385748
5391000000,-60.365856,-23.870697
5394000000,-60.662357,-42.44305
5397000000,-60.62376,-58.69334
5400000000,-61.155769,-75.979454
5403000000,-61.32608,-90.942459
5406000000,-61.046909,-107.65348
5409000000,-61.076099,-119.75576
5412000000,-61.593388,-136.40173
5415000000,-61.953205,-151.30698
5418000000,-61.039696,-165.29657
5421000000,-61.970612,179.36365
5424000000,-61.645969,161.23616
5427000000,-61.425941,150.67848
5430000000,-61.70586,135.2534
5433000000,-61.502956,118.4292
5436000000,-61.246662,99.883163
5439000000,-61.906078,86.432076
5442000000,-61.192837,68.162735
5445000000,-61.79385,53.923653
5448000000,-61.829987,36.785007
5451000000,-61.14986,20.284595
5454000000,-61.83144,7.3297706
5457000000,-61.471436,-11.916456
5460000000,-61.156391,-23.965126
5463000000,-61.292561,-44.304123
5466000000,-61.001518,-57.466248
5469000000,-61.289024,-71.689934
5472000000,-61.672245,-90.06604
5475000000,-61.776249,-103.79927
5478000000,-61.547863,-119.43707
5481000000,-61.298981,-134.46228
5484000000,-61.084278,-149.7034
5487000000,-61.419197,-166.54161
5490000000,-61.08725,175.73126
5493000000,-60.937878,160.63116
5496000000,-60.774921,142.7603
5499000000,-61.291519,125.06544
5502000000,-61.353428,109.86256
5505000000,-61.538624,97.719391
5508000000,-61.691658,78.709915
5511000000,-60.895561,60.815315
5514000000,-60.572559,46.044594
5517000000,-61.159023,28.720676
5520000000,-61.004925,8.6410246
5523000000,-60.96703,-4.9658365
5526000000,-61.870331,-23.597322
5529000000,-61.666042,-38.766937
5532000000,-62.358387,-55.169006
5535000000,-62.649506,-67.404266
5538000000,-61.821617,-81.364807
5541000000,-62.469147,-95.939034
5544000000,-61.56691,-115.52683
5547000000,-62.500305,-128.85864
5550000000,-62.620773,-147.68201
5553000000,-62.514576,-161.31642
5556000000,-62.881725,-174.89671
5559000000,-62.805462,169.40967
5562000000,-62.824078,157.26697
5565000000,-62.50758,143.38373
5568000000,-61.894039,124.52798
5571000000,-62.688549,109.79276
5574000000,-63.216789,91.690536
5577000000,-62.410721,75.857361
5580000000,-62.514755,64.578644
5583000000,-62.563889,48.552547
5586000000,-61.566685,32.310444
5589000000,-61.711838,15.474757
5592000000,-61.902184,-0.84429461
5595000000,-62.337879,-18.490524
5598000000,-62.038483,-31.768717
5601000000,-61.805679,-50.158432
5604000000,-62.140743,-63.792309
5607000000,-62.265583,-78.764938
5610000000,-61.980236,-95.167198
5613000000,-61.908928,-110.62037
5616000000,-61.711338,-130.12428
5619000000,-62.152287,-145.54849
5622000000,-61.957367,-163.12099
5625000000,-62.130474,-175.69403
5628000000,-62.14185,167.82121
5631000000,-61.657215,149.01886
5634000000,-62.062466,130.54909
5637000000,-61.913673,118.10744
5640000000,-62.107674,100.11594
5643000000,-62.034321,83.836967
5646000000,-61.900993,69.326004
5649000000,-62.564285,51.324657
5652000000,-62.828842,36.036636
5655000000,-62.991322,21.780565
5658000000,-62.593616,3.3403859
5661000000,-63.111393,-15.136391
5664000000,-62.895546,-26.017723
5667000000,-63.0065,-42.327858
5670000000,-62.789791,-54.798019
5673000000,-62.544067,-71.7491
5676000000,-63.268902,-91.011002
5679000000,-63.837006,-101.4165
5682000000,-62.879559,-117.68291
5685000000,-63.305496,-131.703
5688000000,-63.573269,-150.82935
5691000000,-63.145824,-165.92317
5694000000,-62.49197,-178.73221
5697000000,-63.041843,163.7084
5700000000,-62.726982,141.82179
5703000000,-62.718521,130.18744
5706000000,-63.000648,111.29118
5709000000,-63.648144,98.676437
5712000000,-63.85075,84.519409
5715000000,-62.724495,66.637146
5718000000,-62.925156,49.44577
5721000000,-62.704048,35.199139
5724000000,-63.087532,20.241186
5727000000,-62.913887,3.9569573
5730000000,-62.943825,-9.4224262
5733000000,-63.789238,-28.905989
5736000000,-63.493999,-43.194607
5739000000,-63.549675,-57.700825
5742000000,-63.686176,-68.696251
5745000000,-62.402111,-93.371887
5748000000,-63.126377,-105.45714
5751000000,-62.707043,-127.99872
5754000000,-63.452202,-140.29121
5757000000,-62.583164,-160.51274
5760000000,-64.255913,-174.56662
5763000000,-64.156036,167.44981
5766000000,-64.782539,159.24106
5769000000,-65.055687,145.32849
5772000000,-63.633251,123.7569
5775000000,-63.406471,110.84682
5778000000,-63.70293,90.912582
5781000000,-64.096161,76.141464
5784000000,-64.305153,57.042145
5787000000,-65.25605,48.216644
5790000000,-64.497101,32.333168
5793000000,-65.06752,18.223173
5796000000,-64.057854,2.9716277
5799000000,-64.942642,-9.7433653
5802000000,-64.767334,-28.974318
5805000000,-65.058853,-42.640236
5808000000,-64.940216,-58.878185
5811000000,-64.235176,-77.277039
5814000000,-64.664413,-90.713264
5817000000,-63.724934,-109.01469
5820000000,-65.230782,-123.80271
5823000000,-64.03109,-134.52525
5826000000,-64.45443,-147.70702
5829000000,-63.862907,-165.97943
5832000000,-64.60627,174.12006
5835000000,-64.497429,159.58713
5838000000,-64.739876,145.77383
5841000000,-65.103294,133.23456
5844000000,-64.574234,119.9605
5847000000,-64.140488,96.306435
5850000000,-64.622337,86.718895
5853000000,-63.754242,69.813911
5856000000,-64.407791,53.603989
5859000000,-63.855511,34.402191
5862000000,-64.409096,18.339394
5865000000,-64.856651,4.9769559
5868000000,-64.618668,-10.161712
5871000000,-64.448517,-26.866282
5874000000,-65.24501,-43.252903
5877000000,-64.295021,-56.618702
5880000000,-63.851967,-76.214981
5883000000,-64.766083,-81.867332
5886000000,-64.282837,-104.46832
5889000000,-63.730068,-123.98558
5892000000,-64.124901,-138.52426
5895000000,-64.789223,-158.29449
5898000000,-64.374367,-172.87209
5901000000,-64.981094,176.31641
5904000000,-65.380051,154.00482
5907000000,-64.203087,140.92381
5910000000,-65.114243,127.65651
5913000000,-64.605171,112.6479
5916000000,-64.729286,97.374016
5919000000,-65.001175,80.775543
5922000000,-65.021172,65.777657
5925000000,-64.947731,45.678787
5928000000,-65.139427,35.683125
5931000000,-64.832344,19.304287
5934000000,-65.297661,3.1689916
5937000000,-65.523865,-16.001333
5940000000,-64.74511,-24.738134
5943000000,-64.791031,-38.860275
5946000000,-64.528931,-60.031757
5949000000,-64.537834,-76.289818
5952000000,-64.989838,-89.17704
5955000000,-63.901447,-104.16147
5958000000,-64.567352,-121.10658
5961000000,-64.443649,-134.63506
5964000000,-65.620598,-153.38344
5967000000,-65.074539,-162.89037
5970000000,-65.005875,175.76711
5973000000,-65.764427,160.49219
5976000000,-64.520462,143.37825
5979000000,-65.180328,129.50693
5982000000,-64.343567,109.04295
5985000000,-64.706841,97.320007
5988000000,-64.54377,80.67585
5991000000,-64.673027,65.476181
5994000000,-64.90519,45.290726
5997000000,-65.318321,31.259796
6000000000,-64.943657,14.539658
END

