!CSV A.01.01
!Keysight Technologies,N5227B,US58420762,A.13.80.08
!Date: Monday, November 20, 2023 14:46:07
!Source: Standard

BEGIN CH1_DATA
Freq(Hz),S21(DB),S21(DEG)
3000000000,-54.73502,-176.06285
3003000000,-54.591911,166.54564
3006000000,-54.600529,147.58955
3009000000,-54.658951,128.68404
3012000000,-54.860283,110.56861
3015000000,-55.073414,92.702271
3018000000,-55.237061,76.038185
3021000000,-55.290642,59.896786
3024000000,-55.320206,42.7686
3027000000,-55.227623,26.279696
3030000000,-55.205986,9.4761324
3033000000,-55.325539,-9.7123957
3036000000,-55.195442,-26.328466
3039000000,-55.603924,-44.56588
3042000000,-55.610966,-60.610649
3045000000,-55.541218,-77.511292
3048000000,-55.663582,-93.776016
3051000000,-55.479576,-109.6599
3054000000,-55.504372,-126.5574
3057000000,-55.502026,-145.31711
3060000000,-55.540901,-162.18045
3063000000,-55.450062,-179.25917
3066000000,-55.692551,163.44106
3069000000,-55.657845,145.62009
3072000000,-55.654472,130.20743
3075000000,-55.78294,113.21918
3078000000,-55.724709,95.654884
3081000000,-55.702908,79.068329
3084000000,-55.706886,62.448303
3087000000,-55.478996,46.30666
3090000000,-55.5336,29.25536
3093000000,-55.475285,11.472033
3096000000,-55.477589,-4.8920345
3099000000,-55.364021,-21.575022
3102000000,-55.306446,-38.075977
3105000000,-54.978386,-55.294136
3108000000,-54.787479,-72.848114
3111000000,-54.78458,-91.384583
3114000000,-54.835735,-109.51615
3117000000,-54.911758,-127.7481
3120000000,-54.912346,-144.77826
3123000000,-54.957363,-162.85242
3126000000,-54.81353,178.67686
3129000000,-54.999638,161.98181
3132000000,-55.174206,144.2561
3135000000,-55.100994,127.07593
3138000000,-55.13974,110.17754
3141000000,-55.238991,92.754433
3144000000,-55.308578,74.787552
3147000000,-55.417713,57.243813
3150000000,-55.516079,39.897968
3153000000,-55.649391,25.04479
3156000000,-55.579666,8.0200138
3159000000,-55.726398,-8.950635
3162000000,-55.740852,-25.859541
3165000000,-55.79884,-42.74012
3168000000,-55.686558,-59.069466
3171000000,-55.678177,-74.516563
3174000000,-55.61829,-92.022514
3177000000,-55.360168,-109.08474
3180000000,-55.296856,-126.6668
3183000000,-55.257969,-143.85486
3186000000,-55.163074,-160.84702
3189000000,-55.117031,-178.86996
3192000000,-55.021656,163.65868
3195000000,-55.222641,145.42644
3198000000,-55.232212,129.10957
3201000000,-55.081165,112.37555
3204000000,-55.095036,94.492378
3207000000,-55.06673,76.639091
3210000000,-55.258251,58.720592
3213000000,-55.279705,41.309418
3216000000,-55.503605,24.42495
3219000000,-55.384453,7.9787121
3222000000,-55.35981,-8.0114079
3225000000,-55.242641,-25.897018
3228000000,-55.343803,-43.232384
3231000000,-55.411098,-60.342228
3234000000,-55.374752,-77.583061
3237000000,-55.464344,-95.292137
3240000000,-55.387745,-112.16406
3243000000,-55.420685,-128.44006
3246000000,-55.447647,-145.28731
3249000000,-55.578838,-162.63718
3252000000,-55.331173,-179.54974
3255000000,-55.354092,163.33896
3258000000,-55.240284,146.14009
3261000000,-55.361858,127.87594
3264000000,-55.552113,111.2156
3267000000,-55.738724,95.865685
3270000000,-55.498699,78.889648
3273000000,-55.398327,61.858955
3276000000,-55.168385,43.963509
3279000000,-55.192234,26.370296
3282000000,-55.244919,9.4145365
3285000000,-55.300751,-7.6981235
3288000000,-55.126595,-24.948141
3291000000,-55.278847,-41.483559
3294000000,-55.053528,-59.14407
3297000000,-55.152191,-77.400093
3300000000,-55.073948,-94.571838
3303000000,-55.148129,-112.55062
3306000000,-55.03727,-128.97839
3309000000,-55.204945,-147.01761
3312000000,-55.258995,-164.95383
3315000000,-55.274921,177.73486
3318000000,-55.453468,161.74026
3321000000,-55.445343,144.74269
3324000000,-55.416737,128.43654
3327000000,-55.520039,110.63441
3330000000,-55.675915,93.117249
3333000000,-55.857609,77.010124
3336000000,-55.663849,62.200123
3339000000,-55.525017,45.72377
3342000000,-55.455952,28.040443
3345000000,-55.280819,10.926459
3348000000,-55.400158,-7.2380233
3351000000,-55.427437,-24.825026
3354000000,-55.577789,-39.654633
3357000000,-55.141609,-54.560421
3360000000,-55.058098,-72.435997
3363000000,-54.813225,-89.936317
3366000000,-54.722469,-108.49113
3369000000,-54.79105,-127.6042
3372000000,-55.085102,-146.00987
3375000000,-55.11684,-162.39565
3378000000,-54.991596,-178.18492
3381000000,-54.918266,165.91307
3384000000,-54.623627,147.81815
3387000000,-54.652924,130.02666
3390000000,-54.488586,110.96017
3393000000,-54.55439,92.135544
3396000000,-54.85527,73.374565
3399000000,-55.078899,56.594841
3402000000,-55.213474,41.549145
3405000000,-55.080311,24.699347
3408000000,-55.059246,7.4923778
3411000000,-55.094219,-9.4347115
3414000000,-55.119194,-27.318823
3417000000,-55.206158,-44.952412
3420000000,-55.264198,-62.044334
3423000000,-55.196266,-78.207794
3426000000,-55.33514,-95.74649
3429000000,-55.436363,-114.21936
3432000000,-55.602547,-130.64783
3435000000,-55.73608,-146.12503
3438000000,-55.622601,-160.95676
3441000000,-55.677528,-177.46361
3444000000,-55.434757,165.1942
3447000000,-55.250931,147.38876
3450000000,-55.129807,129.56866
3453000000,-55.375561,112.9858
3456000000,-55.408489,96.472008
3459000000,-55.31052,79.455688
3462000000,-55.287174,63.568741
3465000000,-55.214706,45.710098
3468000000,-54.967934,29.660265
3471000000,-54.724739,10.929252
3474000000,-54.635361,-7.3582406
3477000000,-54.723648,-24.642752
3480000000,-54.820324,-42.798275
3483000000,-55.173828,-60.961433
3486000000,-55.128513,-76.537109
3489000000,-55.185383,-91.705399
3492000000,-54.924053,-108.84872
3495000000,-54.658112,-127.06324
3498000000,-54.581337,-145.06856
3501000000,-54.581638,-163.05072
3504000000,-54.621742,179.2357
3507000000,-54.725807,161.16216
3510000000,-54.858269,144.25159
3513000000,-55.031799,127.71635
3516000000,-54.863644,111.57789
3519000000,-54.847599,94.384727
3522000000,-54.78474,77.280479
3525000000,-54.599117,59.758331
3528000000,-54.606548,40.744057
3531000000,-54.779926,21.572403
3534000000,-54.985535,4.1931081
3537000000,-55.027622,-11.536436
3540000000,-55.246727,-27.884329
3543000000,-55.115601,-44.112831
3546000000,-55.062401,-61.029202
3549000000,-55.08448,-79.130898
3552000000,-55.125813,-96.709801
3555000000,-55.18618,-113.52586
3558000000,-55.333469,-129.7068
3561000000,-55.452492,-146.1199
3564000000,-55.158779,-163.16704
3567000000,-55.166508,179.99527
3570000000,-55.213226,163.7632
3573000000,-55.019321,147.8374
3576000000,-54.968018,130.77274
3579000000,-54.686081,112.13275
3582000000,-54.608501,95.023659
3585000000,-54.73848,76.695572
3588000000,-54.767963,58.333988
3591000000,-54.663891,41.344257
3594000000,-54.882923,23.269104
3597000000,-54.782887,6.9145842
3600000000,-54.8255,-10.768421
3603000000,-54.652195,-26.560305
3606000000,-54.622498,-44.912445
3609000000,-54.678822,-62.539131
3612000000,-54.802471,-80.28199
3615000000,-54.973469,-98.07164
3618000000,-55.230743,-115.36217
3621000000,-55.211628,-132.06863
3624000000,-55.352043,-147.64836
3627000000,-55.329304,-163.62796
3630000000,-54.91497,178.94476
3633000000,-55.10376,162.45973
3636000000,-54.972755,144.9821
3639000000,-55.050457,127.81662
3642000000,-55.172005,111.21456
3645000000,-55.004295,94.469566
3648000000,-54.898605,77.28231
3651000000,-54.754391,59.521317
3654000000,-54.662941,42.52499
3657000000,-54.606781,23.709948
3660000000,-54.702503,6.4841547
3663000000,-54.717846,-11.429421
3666000000,-54.937946,-28.92555
3669000000,-54.988876,-45.374702
3672000000,-55.029915,-62.019211
3675000000,-54.984127,-79.017273
3678000000,-54.880482,-96.935402
3681000000,-54.994923,-114.22376
3684000000,-55.071468,-131.12416
3687000000,-55.085487,-148.05016
3690000000,-55.123203,-164.21834
3693000000,-55.110779,178.66585
3696000000,-54.769112,160.97182
3699000000,-55.095173,143.08241
3702000000,-55.082039,127.5956
3705000000,-55.0163,110.39607
3708000000,-54.911869,92.544807
3711000000,-54.683102,76.296753
3714000000,-54.830078,58.961628
3717000000,-54.705082,40.770618
3720000000,-54.822163,23.154129
3723000000,-54.651657,4.1344528
3726000000,-54.855667,-11.483494
3729000000,-54.980961,-28.026356
3732000000,-54.685825,-46.450729
3735000000,-54.891544,-63.572601
3738000000,-54.864708,-81.61834
3741000000,-54.875824,-98.006767
3744000000,-55.024147,-115.20931
3747000000,-55.171196,-132.82004
3750000000,-54.999107,-148.08687
3753000000,-55.039047,-165.88048
3756000000,-54.990955,176.74136
3759000000,-54.91811,159.77164
3762000000,-54.985168,141.59218
3765000000,-55.044163,124.12115
3768000000,-55.159042,106.94356
3771000000,-55.300125,90.059769
3774000000,-55.322998,73.997604
3777000000,-55.138439,57.7747
3780000000,-54.92461,40.972664
3783000000,-54.605503,21.739687
3786000000,-54.816181,4.2868953
3789000000,-55.000984,-14.676582
3792000000,-55.276897,-32.400391
3795000000,-55.585365,-47.630436
3798000000,-55.598766,-63.944492
3801000000,-55.65184,-78.274803
3804000000,-55.524544,-94.258446
3807000000,-55.322323,-110.25554
3810000000,-55.071342,-128.34955
3813000000,-55.002926,-146.88559
3816000000,-54.965622,-164.93997
3819000000,-55.236614,176.83394
3822000000,-55.266708,162.58008
3825000000,-55.231216,145.80809
3828000000,-54.994278,130.65564
3831000000,-54.653179,113.69698
3834000000,-54.349293,94.290443
3837000000,-54.338619,75.482048
3840000000,-54.239082,57.286503
3843000000,-54.287308,38.504551
3846000000,-54.590694,21.70611
3849000000,-54.727654,4.2207332
3852000000,-54.598972,-12.206856
3855000000,-54.641136,-28.498783
3858000000,-54.60865,-46.843517
3861000000,-54.605991,-64.388222
3864000000,-54.567245,-82.270828
3867000000,-54.597954,-100.57024
3870000000,-54.731636,-119.48285
3873000000,-54.963341,-135.96451
3876000000,-54.997547,-152.63586
3879000000,-55.221062,-167.29793
3882000000,-55.254101,175.51486
3885000000,-54.845921,158.97031
3888000000,-54.81834,141.70985
3891000000,-54.742764,123.77807
3894000000,-54.631699,104.31982
3897000000,-54.847118,87.18853
3900000000,-54.913597,69.150421
3903000000,-55.330296,53.166653
3906000000,-55.434509,37.948734
3909000000,-55.295128,23.208271
3912000000,-54.747429,6.7661772
3915000000,-54.704182,-10.67574
3918000000,-54.612305,-29.940388
3921000000,-54.525135,-49.285305
3924000000,-54.594677,-67.891777
3927000000,-54.954216,-87.153694
3930000000,-55.204025,-102.99779
3933000000,-55.439438,-118.57842
3936000000,-55.303978,-134.57034
3939000000,-55.190891,-150.49951
3942000000,-55.253654,-167.37227
3945000000,-55.064144,175.21979
3948000000,-55.074368,156.99823
3951000000,-54.989716,138.70663
3954000000,-55.223507,123.36022
3957000000,-55.306419,107.12323
3960000000,-55.17001,91.49704
3963000000,-55.124615,74.498955
3966000000,-55.022751,57.888191
3969000000,-54.596642,39.950436
3972000000,-54.401939,22.067139
3975000000,-54.416801,3.3809958
3978000000,-54.377129,-15.519906
3981000000,-54.486519,-32.775379
3984000000,-54.671192,-50.886356
3987000000,-54.600323,-68.306252
3990000000,-54.699493,-85.928566
3993000000,-54.711163,-102.89375
3996000000,-54.573341,-120.56451
3999000000,-54.766647,-138.35205
4002000000,-54.883926,-156.26312
4005000000,-55.064579,-173.64818
4008000000,-55.286011,168.82298
4011000000,-55.203003,151.98701
4014000000,-55.441223,137.81985
4017000000,-55.494534,120.69553
4020000000,-55.40836,104.01022
4023000000,-55.237022,88.077347
4026000000,-55.084976,71.976845
4029000000,-54.855694,52.818035
4032000000,-54.874992,35.599461
4035000000,-54.875587,17.415304
4038000000,-54.984943,-0.25240678
4041000000,-55.323372,-17.897001
4044000000,-55.101196,-33.507069
4047000000,-55.091484,-50.026611
4050000000,-55.067944,-66.883774
4053000000,-54.900532,-84.459213
4056000000,-54.765018,-102.50777
4059000000,-54.76939,-120.76308
4062000000,-54.848431,-139.82097
4065000000,-55.126781,-157.23349
4068000000,-55.236015,-173.09636
4071000000,-55.463234,171.40929
4074000000,-55.317814,154.91838
4077000000,-55.06245,137.32225
4080000000,-55.15168,120.35699
4083000000,-54.941467,101.97882
4086000000,-54.925674,84.77858
4089000000,-55.020412,67.99826
4092000000,-55.245464,49.976974
4095000000,-55.319786,32.350258
4098000000,-55.191525,15.613729
4101000000,-55.244198,-0.56307214
4104000000,-55.107563,-17.69136
4107000000,-55.098019,-35.270306
4110000000,-54.876236,-52.632839
4113000000,-55.17963,-68.958176
4116000000,-55.06329,-87.733849
4119000000,-55.129032,-105.60332
4122000000,-55.087139,-122.27865
4125000000,-55.166225,-140.21704
4128000000,-55.267418,-156.66858
4131000000,-55.227901,-172.61456
4134000000,-55.202942,170.05469
4137000000,-55.279655,152.20494
4140000000,-54.925858,135.44267
4143000000,-54.985229,115.67036
4146000000,-55.066532,99.223198
4149000000,-55.219662,82.151756
4152000000,-55.265984,64.171127
4155000000,-55.350864,48.699619
4158000000,-55.170723,31.348745
4161000000,-55.259373,14.057905
4164000000,-55.107193,-4.171845
4167000000,-55.285168,-20.805077
4170000000,-55.251385,-37.829124
4173000000,-55.397427,-55.594059
4176000000,-55.376713,-72.364639
4179000000,-55.485931,-90.053123
4182000000,-55.778637,-106.51901
4185000000,-55.671223,-121.97244
4188000000,-55.525604,-139.35715
4191000000,-55.36047,-156.32236
4194000000,-55.19278,-173.40552
4197000000,-55.138466,169.00237
4200000000,-55.238068,150.83926
4203000000,-55.239815,133.15511
4206000000,-55.393394,116.39217
4209000000,-55.323284,99.403824
4212000000,-55.461845,81.751228
4215000000,-55.149963,65.356926
4218000000,-55.22575,47.546837
4221000000,-55.209229,30.160486
4224000000,-55.103123,13.491435
4227000000,-55.249851,-4.9214792
4230000000,-55.29763,-22.895515
4233000000,-55.290085,-39.050117
4236000000,-55.382233,-56.953873
4239000000,-55.48177,-73.904442
4242000000,-55.431641,-90.241928
4245000000,-55.33432,-107.2433
4248000000,-55.145641,-125.734
4251000000,-55.260822,-142.20003
4254000000,-55.289711,-161.5359
4257000000,-55.386131,-178.0022
4260000000,-55.447372,164.81322
4263000000,-55.418762,148.46005
4266000000,-55.3708,129.95824
4269000000,-55.23365,113.88434
4272000000,-55.373787,97.197311
4275000000,-55.557056,77.709999
4278000000,-55.582417,60.910618
4281000000,-55.729774,45.681313
4284000000,-55.574844,28.127668
4287000000,-55.527172,10.34997
4290000000,-55.661015,-6.9294257
4293000000,-55.818172,-24.24402
4296000000,-55.610691,-41.646034
4299000000,-55.739231,-57.334099
4302000000,-55.563049,-74.016861
4305000000,-55.278656,-92.239243
4308000000,-55.491791,-108.33749
4311000000,-55.560501,-126.82674
4314000000,-55.425026,-144.75508
4317000000,-55.296577,-162.83446
4320000000,-55.544628,-178.91757
4323000000,-55.668732,162.38458
4326000000,-55.538891,145.89879
4329000000,-55.843891,127.24001
4332000000,-55.715382,111.3577
4335000000,-55.86993,95.454773
4338000000,-55.495918,76.956123
4341000000,-55.511238,59.518681
4344000000,-55.827267,41.245632
4347000000,-56.022022,24.237587
4350000000,-56.069347,8.4556379
4353000000,-56.103176,-7.9980063
4356000000,-56.245197,-25.06983
4359000000,-55.987457,-41.604416
4362000000,-56.022514,-58.06443
4365000000,-55.834682,-74.740456
4368000000,-55.804325,-92.742378
4371000000,-55.793491,-110.03306
4374000000,-55.551437,-128.00793
4377000000,-55.793694,-146.19228
4380000000,-55.712025,-161.47382
4383000000,-55.883705,-178.73007
4386000000,-55.856091,164.53885
4389000000,-55.550606,146.6123
4392000000,-55.637646,129.31953
4395000000,-55.448757,111.62655
4398000000,-55.720394,92.097023
4401000000,-55.828602,73.489395
4404000000,-55.774738,56.865791
4407000000,-56.15456,40.443939
4410000000,-56.246353,22.689476
4413000000,-56.126659,7.0358834
4416000000,-56.046677,-10.6796
4419000000,-55.946781,-25.749071
4422000000,-55.947296,-43.187809
4425000000,-55.767483,-61.209007
4428000000,-55.804535,-78.484772
4431000000,-55.952751,-96.351616
4434000000,-56.01804,-113.84688
4437000000,-56.148846,-132.14461
4440000000,-56.14423,-147.07538
4443000000,-56.042,-164.92792
4446000000,-55.83289,178.26892
4449000000,-55.908749,160.56337
4452000000,-56.046673,141.26743
4455000000,-55.912529,124.11899
4458000000,-56.064644,106.26944
4461000000,-56.358868,89.589951
4464000000,-56.44936,72.794655
4467000000,-56.214531,57.957413
4470000000,-56.233601,40.500473
4473000000,-56.172386,20.724293
4476000000,-56.174507,3.6638415
4479000000,-56.339241,-13.345002
4482000000,-56.380798,-29.990351
4485000000,-56.648762,-46.629532
4488000000,-56.415497,-62.649097
4491000000,-56.450523,-80.741913
4494000000,-56.460205,-96.87429
4497000000,-56.367569,-113.94974
4500000000,-56.218227,-131.06972
4503000000,-56.100147,-147.65558
4506000000,-56.217896,-166.20441
4509000000,-56.463596,176.14404
4512000000,-56.414127,158.8287
4515000000,-56.452179,143.62758
4518000000,-56.328457,125.91533
4521000000,-56.265465,108.81416
4524000000,-56.25008,90.760521
4527000000,-56.055531,74.507576
4530000000,-56.108814,53.442677
4533000000,-56.142876,36.244354
4536000000,-56.525669,19.985594
4539000000,-56.696308,2.1649568
4542000000,-56.587532,-13.665243
4545000000,-56.587925,-29.892719
4548000000,-56.493462,-47.418175
4551000000,-56.583202,-65.06797
4554000000,-56.561546,-82.123848
4557000000,-56.556156,-99.485306
4560000000,-56.171181,-115.83103
4563000000,-56.290871,-134.37144
4566000000,-56.690346,-151.11234
4569000000,-56.708145,-168.93898
4572000000,-56.524601,175.9209
4575000000,-56.652275,159.09911
4578000000,-56.354607,141.1058
4581000000,-56.369289,122.81045
4584000000,-56.4799,107.7633
4587000000,-56.317192,87.978279
4590000000,-56.632668,68.970619
4593000000,-56.550591,52.567596
4596000000,-56.923,35.022942
4599000000,-56.929382,20.402275
4602000000,-56.980293,3.9496977
4605000000,-56.894047,-15.215495
4608000000,-56.813457,-32.485294
4611000000,-56.73764,-49.310291
4614000000,-56.79755,-66.146339
4617000000,-56.777355,-83.387772
4620000000,-56.952961,-99.045471
4623000000,-56.7994,-117.28046
4626000000,-56.983219,-133.26543
4629000000,-56.742889,-149.31073
4632000000,-56.809914,-167.55763
4635000000,-56.513206,176.18863
4638000000,-56.67041,157.05951
4641000000,-56.653023,139.16281
4644000000,-56.898392,121.82898
4647000000,-56.850891,105.35207
4650000000,-57.101349,88.146507
4653000000,-56.768967,73.913887
4656000000,-56.763309,56.232983
4659000000,-56.507935,37.894821
4662000000,-56.37175,19.246916
4665000000,-56.39867,1.5931357
4668000000,-56.603867,-17.058985
4671000000,-56.774376,-34.067883
4674000000,-56.975582,-51.009056
4677000000,-56.900948,-66.826111
4680000000,-56.757175,-84.696365
4683000000,-56.601639,-101.12688
4686000000,-56.759708,-118.04291
4689000000,-56.593342,-135.16127
4692000000,-56.872803,-155.02173
4695000000,-56.899261,-171.94261
4698000000,-56.943733,171.58365
4701000000,-56.912529,152.80135
4704000000,-57.154713,136.45656
4707000000,-57.22686,120.43739
4710000000,-57.199146,106.15156
4713000000,-57.048126,86.932922
4716000000,-56.893589,68.714012
4719000000,-57.056709,52.478428
4722000000,-57.352695,35.658798
4725000000,-57.226768,18.216488
4728000000,-57.32103,2.4411643
4731000000,-57.071342,-13.862408
4734000000,-57.095592,-31.255131
4737000000,-56.662106,-50.083981
4740000000,-56.668346,-67.932823
4743000000,-56.892162,-87.626678
4746000000,-57.187149,-104.14405
4749000000,-57.254887,-119.8959
4752000000,-57.158569,-136.7393
4755000000,-57.272038,-154.01549
4758000000,-57.035259,-170.32094
4761000000,-56.839161,171.31555
4764000000,-57.14484,152.79312
4767000000,-57.263866,136.17087
4770000000,-57.135128,117.77745
4773000000,-57.213379,103.67681
4776000000,-57.420677,86.716766
4779000000,-57.044365,70.673843
4782000000,-57.405331,53.193443
4785000000,-57.310452,36.035896
4788000000,-57.040092,16.613958
4791000000,-56.922752,1.1640115
4794000000,-56.979881,-17.538631
4797000000,-56.961819,-35.684742
4800000000,-57.123066,-52.992653
4803000000,-57.182541,-70.664558
4806000000,-57.462315,-86.749001
4809000000,-57.471928,-103.0062
4812000000,-57.207764,-118.67303
4815000000,-57.180351,-136.50774
4818000000,-57.002674,-155.06702
4821000000,-57.062862,-172.30336
4824000000,-57.142284,172.05998
4827000000,-57.296402,153.99779
4830000000,-57.198883,135.35599
4833000000,-57.246384,120.40722
4836000000,-57.064346,101.28323
4839000000,-57.027851,85.111664
4842000000,-56.982334,67.00042
4845000000,-56.904198,47.865341
4848000000,-57.148434,29.88575
4851000000,-57.361797,12.339423
4854000000,-57.364536,-5.0112472
4857000000,-57.473606,-21.515356
4860000000,-57.626217,-37.333942
4863000000,-57.431446,-53.886806
4866000000,-57.480629,-70.778831
4869000000,-57.385986,-88.835594
4872000000,-57.505886,-105.27289
4875000000,-57.436695,-122.17451
4878000000,-57.519123,-139.44022
4881000000,-57.585411,-158.6201
4884000000,-57.826389,-174.19464
4887000000,-57.90007,166.94391
4890000000,-57.856804,151.39694
4893000000,-57.744469,137.48668
4896000000,-57.51392,119.95352
4899000000,-57.711987,101.91621
4902000000,-57.591873,84.126472
4905000000,-57.571613,67.838707
4908000000,-57.350418,50.815479
4911000000,-57.384586,31.894215
4914000000,-57.486485,15.996001
4917000000,-57.593132,1.0161728
4920000000,-57.444347,-17.991816
4923000000,-57.409702,-35.108124
4926000000,-57.553875,-53.455368
4929000000,-57.001442,-69.026192
4932000000,-57.166389,-87.59288
4935000000,-57.492184,-106.54387
4938000000,-57.532608,-125.55103
4941000000,-57.919411,-141.82007
4944000000,-57.735554,-156.60825
4947000000,-57.781902,-173.05701
4950000000,-57.409462,171.19273
4953000000,-57.36935,153.33554
4956000000,-57.359123,135.43886
4959000000,-57.397011,117.67645
4962000000,-57.421516,99.989456
4965000000,-57.578632,82.944717
4968000000,-57.611858,65.774025
4971000000,-57.793251,49.502975
4974000000,-57.5009,32.075573
4977000000,-57.246536,16.470306
4980000000,-57.093914,-1.7245637
4983000000,-57.403515,-20.812677
4986000000,-57.14999,-38.663105
4989000000,-57.347111,-57.772621
4992000000,-57.474014,-73.228233
4995000000,-57.583946,-88.416298
4998000000,-57.82629,-105.59748
5001000000,-57.402103,-122.83236
5004000000,-57.485992,-139.23758
5007000000,-57.546513,-158.79359
5010000000,-57.593525,-177.43448
5013000000,-57.51791,163.45134
5016000000,-57.58342,147.33107
5019000000,-57.631695,133.16206
5022000000,-57.833134,115.65678
5025000000,-57.263481,99.370651
5028000000,-57.903286,83.571556
5031000000,-57.475975,63.990116
5034000000,-57.716537,46.997784
5037000000,-57.642803,27.144226
5040000000,-57.89716,12.31466
5043000000,-58.111153,-1.8523469
5046000000,-58.039497,-19.233765
5049000000,-57.699833,-35.928558
5052000000,-57.525276,-56.033474
5055000000,-57.145798,-72.927063
5058000000,-57.393276,-91.18911
5061000000,-57.50975,-108.26132
5064000000,-57.576691,-124.98586
5067000000,-57.593483,-141.82689
5070000000,-57.412102,-158.38403
5073000000,-57.617088,-176.35754
5076000000,-57.827652,165.88715
5079000000,-57.535065,149.31168
5082000000,-57.503731,131.25179
5085000000,-57.612473,112.76899
5088000000,-57.808388,96.958458
5091000000,-57.789589,80.148552
5094000000,-57.975246,62.273846
5097000000,-57.953499,47.78717
5100000000,-57.944874,30.436949
5103000000,-57.579037,12.395874
5106000000,-57.711292,-4.6352215
5109000000,-57.562634,-24.448301
5112000000,-57.656998,-40.182663
5115000000,-57.679344,-58.160606
5118000000,-57.686768,-76.505341
5121000000,-57.74498,-90.396301
5124000000,-57.690815,-107.38644
5127000000,-57.566853,-124.02774
5130000000,-57.246704,-145.72539
5133000000,-57.544094,-161.38922
5136000000,-57.407139,179.92365
5139000000,-57.463215,160.29826
5142000000,-57.597504,144.12079
5145000000,-57.729626,128.3092
5148000000,-57.78336,111.23392
5151000000,-57.859657,96.390434
5154000000,-57.908031,78.336311
5157000000,-57.846081,60.390778
5160000000,-57.853729,44.141129
5163000000,-57.635368,24.970207
5166000000,-58.058102,7.4386926
5169000000,-58.233093,-9.4329062
5172000000,-58.268234,-25.165056
5175000000,-58.042095,-40.396519
5178000000,-57.9025,-55.858727
5181000000,-57.946384,-74.073044
5184000000,-57.707813,-95.284836
5187000000,-57.671673,-111.10316
5190000000,-57.784199,-127.86794
5193000000,-58.050426,-145.50343
5196000000,-57.969894,-164.68459
5199000000,-58.12756,179.68341
5202000000,-58.035084,161.81392
5205000000,-58.325481,144.32329
5208000000,-58.127689,129.55524
5211000000,-57.904102,109.6319
5214000000,-58.218781,94.66806
5217000000,-58.322437,76.384285
5220000000,-58.470676,61.062157
5223000000,-58.076794,42.842739
5226000000,-58.196522,25.515909
5229000000,-58.261478,5.826921
5232000000,-58.172047,-7.3922567
5235000000,-58.232983,-24.139153
5238000000,-57.882267,-40.436626
5241000000,-58.132027,-61.51627
5244000000,-57.682167,-76.667191
5247000000,-57.708363,-96.406349
5250000000,-57.601715,-113.05494
5253000000,-58.259617,-130.72559
5256000000,-58.46579,-145.36586
5259000000,-58.118332,-161.57849
5262000000,-58.0186,-179.18732
5265000000,-57.862411,163.64934
5268000000,-57.816185,143.94017
5271000000,-57.716774,125.70361
5274000000,-58.10807,108.44208
5277000000,-58.697853,90.246017
5280000000,-58.724854,75.378937
5283000000,-58.393841,57.82008
5286000000,-58.310596,40.211613
5289000000,-58.472721,24.879202
5292000000,-58.608246,4.952981
5295000000,-58.436939,-9.8887873
5298000000,-58.474483,-27.118723
5301000000,-58.408958,-44.90411
5304000000,-58.381405,-60.816994
5307000000,-58.426067,-77.981033
5310000000,-58.462345,-94.890327
5313000000,-58.316338,-111.15606
5316000000,-58.466339,-127.34291
5319000000,-58.321392,-145.4929
5322000000,-57.849586,-161.90752
5325000000,-57.893459,179.21057
5328000000,-58.281616,162.06773
5331000000,-58.254593,143.09506
5334000000,-58.340981,125.76366
5337000000,-58.621326,109.31364
5340000000,-58.373718,94.123276
5343000000,-58.602741,77.407845
5346000000,-58.445114,60.388866
5349000000,-58.143585,42.423931
5352000000,-58.108246,24.392765
5355000000,-58.273483,7.6995955
5358000000,-58.48801,-9.352356
5361000000,-58.475922,-26.495878
5364000000,-58.505161,-43.674816
5367000000,-58.2439,-60.576954
5370000000,-58.579422,-79.331184
5373000000,-58.110756,-92.796089
5376000000,-58.063091,-111.43894
5379000000,-57.77058,-130.9922
5382000000,-58.400925,-149.53535
5385000000,-58.113358,-169.32985
5388000000,-58.20216,174.25803
5391000000,-58.737202,160.39326
5394000000,-58.717411,142.83083
5397000000,-58.383987,126.86523
5400000000,-58.375309,109.95522
5403000000,-58.296154,91.270477
5406000000,-58.565876,72.361427
5409000000,-58.60881,56.936615
5412000000,-58.906235,40.09462
5415000000,-59.153992,23.962276
5418000000,-58.736847,8.4064856
5421000000,-58.522392,-9.9327507
5424000000,-58.627674,-27.437063
5427000000,-59.015465,-44.56617
5430000000,-58.937775,-62.368523
5433000000,-58.800579,-77.176941
5436000000,-58.522194,-95.34082
5439000000,-58.461987,-111.9401
5442000000,-58.232269,-130.06769
5445000000,-58.485424,-145.71716
5448000000,-58.678944,-163.15244
5451000000,-58.360271,179.68524
5454000000,-58.613033,159.55936
5457000000,-58.354446,146.56879
5460000000,-58.252502,127.48487
5463000000,-58.374989,108.59968
5466000000,-58.249699,91.949417
5469000000,-58.719521,74.667831
5472000000,-58.386696,60.150608
5475000000,-58.712902,40.353374
5478000000,-58.495163,25.216755
5481000000,-58.684052,6.3277245
5484000000,-58.595154,-9.1650057
5487000000,-58.436806,-28.849773
5490000000,-58.344025,-44.968651
5493000000,-58.441639,-62.37072
5496000000,-58.385845,-80.336433
5499000000,-58.485008,-100.87156
5502000000,-58.638458,-115.05531
5505000000,-58.912155,-131.29306
5508000000,-58.995018,-149.56099
5511000000,-58.609371,-164.77849
5514000000,-58.581184,175.08133
5517000000,-58.382168,161.96996
5520000000,-58.417847,140.5571
5523000000,-58.552906,124.4987
5526000000,-58.702072,105.62148
5529000000,-58.478699,87.623009
5532000000,-58.787174,71.026848
5535000000,-58.952801,52.838757
5538000000,-58.676746,40.218891
5541000000,-59.157921,20.30743
5544000000,-58.775715,2.8301134
5547000000,-59.244778,-13.004725
5550000000,-58.786221,-29.897066
5553000000,-58.909157,-46.640812
5556000000,-58.890179,-64.021683
5559000000,-58.944843,-81.338005
5562000000,-58.82719,-97.915993
5565000000,-58.864105,-115.57609
5568000000,-59.456165,-132.50348
5571000000,-59.33955,-146.74983
5574000000,-58.503826,-163.89903
5577000000,-58.634224,-179.07265
5580000000,-58.561844,161.40945
5583000000,-58.496166,144.29704
5586000000,-58.831299,125.97175
5589000000,-58.811878,108.21917
5592000000,-58.792351,88.838989
5595000000,-59.053246,73.573303
5598000000,-58.81929,55.105244
5601000000,-58.707882,39.091133
5604000000,-58.805653,18.449293
5607000000,-59.009068,4.5278583
5610000000,-58.973679,-16.7631
5613000000,-59.060425,-33.296883
5616000000,-59.169651,-47.041294
5619000000,-58.920929,-66.133018
5622000000,-58.984997,-85.642471
5625000000,-59.015751,-99.425743
5628000000,-58.971073,-116.32129
5631000000,-59.133709,-133.06728
5634000000,-59.180954,-149.18718
5637000000,-58.7896,-166.89821
5640000000,-59.034115,172.66255
5643000000,-58.777431,156.65016
5646000000,-59.008385,140.65778
5649000000,-59.906078,122.05161
5652000000,-59.36002,104.95496
5655000000,-59.38063,85.37101
5658000000,-59.44334,71.965935
5661000000,-59.604305,54.652485
5664000000,-59.62809,34.159817
5667000000,-59.800743,22.279451
5670000000,-59.332802,6.9517632
5673000000,-59.715591,-11.604179
5676000000,-59.428459,-28.819157
5679000000,-59.898335,-44.231815
5682000000,-60.166302,-60.726723
5685000000,-59.729786,-77.147507
5688000000,-59.879593,-94.189156
5691000000,-59.05146,-114.58537
5694000000,-59.862701,-130.34586
5697000000,-59.585087,-150.03996
5700000000,-59.988068,-166.80611
5703000000,-59.212944,179.38217
5706000000,-59.376648,161.44641
5709000000,-59.538361,144.33659
5712000000,-59.185844,126.42461
5715000000,-59.53046,109.03552
5718000000,-59.140114,90.033981
5721000000,-59.42981,74.895279
5724000000,-59.483837,55.753803
5727000000,-60.074123,37.605873
5730000000,-59.401752,23.208897
5733000000,-59.497425,6.7812948
5736000000,-59.328751,-11.231206
5739000000,-59.445526,-29.163221
5742000000,-59.779572,-48.145664
5745000000,-59.693092,-61.981522
5748000000,-59.605591,-77.665215
5751000000,-59.273422,-95.723366
5754000000,-60.382835,-113.69707
5757000000,-59.721184,-131.48299
5760000000,-59.383831,-145.98711
5763000000,-59.496204,-162.14359
5766000000,-59.591946,176.44641
5769000000,-60.050953,162.06432
5772000000,-59.710644,141.64185
5775000000,-59.633801,127.71938
5778000000,-60.051865,109.6944
5781000000,-59.915951,91.276604
5784000000,-60.019955,75.192368
5787000000,-59.929749,61.010189
5790000000,-59.93417,43.204075
5793000000,-60.215256,25.535843
5796000000,-59.79723,6.3660026
5799000000,-60.022602,-6.8586659
5802000000,-60.251438,-26.064156
5805000000,-60.470985,-39.710869
5808000000,-60.255585,-55.996799
5811000000,-60.352745,-72.819176
5814000000,-59.727806,-87.803452
5817000000,-59.886501,-108.73804
5820000000,-60.362335,-126.02146
5823000000,-60.039108,-145.08521
5826000000,-59.391552,-162.0316
5829000000,-59.509048,-178.97769
5832000000,-59.605953,163.79449
5835000000,-59.717064,147.18266
5838000000,-59.493343,132.97856
5841000000,-59.526192,111.12135
5844000000,-59.959702,91.947723
5847000000,-59.399952,76.856537
5850000000,-59.524834,63.843582
5853000000,-59.38435,43.504189
5856000000,-59.19614,23.560904
5859000000,-59.389256,7.5401902
5862000000,-59.460766,-10.083434
5865000000,-59.528339,-21.469339
5868000000,-59.175434,-40.581066
5871000000,-59.408501,-58.941467
5874000000,-59.708256,-77.684074
5877000000,-59.732006,-92.3302
5880000000,-60.135788,-111.80982
5883000000,-59.694965,-131.41257
5886000000,-60.169701,-144.93443
5889000000,-59.668167,-162.13614
5892000000,-60.205677,-175.26018
5895000000,-60.015278,164.14572
5898000000,-59.786617,150.67546
5901000000,-59.678562,130.7569
5904000000,-59.999535,115.02574
5907000000,-60.098404,98.91526
5910000000,-60.209789,80.32843
5913000000,-59.890682,65.623825
5916000000,-60.142815,47.687683
5919000000,-59.858093,31.164879
5922000000,-59.113983,15.634822
5925000000,-59.840851,-3.2733424
5928000000,-59.636509,-23.653461
5931000000,-59.477448,-38.311199
5934000000,-59.770954,-53.719437
5937000000,-60.332893,-70.470642
5940000000,-59.504745,-88.453568
5943000000,-59.948292,-106.96315
5946000000,-59.722073,-127.02035
5949000000,-59.607101,-141.47299
5952000000,-59.750492,-156.09883
5955000000,-59.410061,-176.4256
5958000000,-59.319283,168.97777
5961000000,-59.631855,152.62225
5964000000,-59.546795,134.62222
5967000000,-59.367844,117.19344
5970000000,-59.749355,101.9841
5973000000,-59.456745,85.178864
5976000000,-59.220135,65.740356
5979000000,-59.436886,46.841713
5982000000,-59.508183,31.8333
5985000000,-59.342819,12.100716
5988000000,-59.29752,-0.11705762
5991000000,-59.039295,-21.141729
5994000000,-59.165283,-38.318089
5997000000,-59.562408,-53.509922
6000000000,-59.024509,-70.411629
END

