!CSV A.01.01
!Keysight Technologies,N5227B,US58420762,A.13.80.08
!Date: Monday, November 20, 2023 15:51:35
!Source: Standard

BEGIN CH1_DATA
Freq(Hz),S21(DB),S21(DEG)
3000000000,-58.251305,13.120397
3003000000,-58.37426,-1.03585
3006000000,-58.382317,-16.376287
3009000000,-58.611477,-29.02689
3012000000,-58.538128,-41.051609
3015000000,-58.522007,-56.050785
3018000000,-58.237385,-71.080872
3021000000,-58.154182,-86.340248
3024000000,-58.497814,-102.3051
3027000000,-58.5839,-116.55318
3030000000,-58.558887,-127.85237
3033000000,-58.436092,-142.14758
3036000000,-58.680244,-155.02933
3039000000,-58.555241,-170.96889
3042000000,-58.560177,173.93721
3045000000,-58.538017,158.11453
3048000000,-58.874027,145.65248
3051000000,-58.840218,131.23267
3054000000,-59.219807,117.22443
3057000000,-59.088535,105.13294
3060000000,-59.225147,90.62114
3063000000,-59.291885,77.726318
3066000000,-59.231117,63.997295
3069000000,-59.052055,51.129593
3072000000,-59.14669,37.790852
3075000000,-59.292969,23.170059
3078000000,-59.297649,10.431955
3081000000,-59.100815,-3.4081075
3084000000,-59.245396,-16.276892
3087000000,-58.919205,-29.496737
3090000000,-58.756561,-41.626835
3093000000,-58.754253,-56.770752
3096000000,-58.549259,-70.726677
3099000000,-58.255619,-83.949318
3102000000,-58.137733,-98.285782
3105000000,-58.091743,-113.58213
3108000000,-57.833218,-127.7057
3111000000,-57.689568,-143.79263
3114000000,-57.681793,-159.82672
3117000000,-57.79253,-173.3082
3120000000,-57.813969,172.43575
3123000000,-57.637383,158.22331
3126000000,-57.611588,143.40359
3129000000,-57.535057,128.3186
3132000000,-57.465511,114.04768
3135000000,-57.652924,97.95594
3138000000,-57.895367,83.541588
3141000000,-57.819309,69.978859
3144000000,-57.478603,56.527527
3147000000,-57.552402,40.720882
3150000000,-57.646957,25.030401
3153000000,-57.839035,9.9359922
3156000000,-57.971645,-3.8575866
3159000000,-58.053921,-17.476158
3162000000,-58.089218,-30.558393
3165000000,-57.965122,-43.895893
3168000000,-58.165398,-59.075058
3171000000,-58.270733,-73.060272
3174000000,-58.293709,-86.089386
3177000000,-58.394382,-99.596161
3180000000,-58.316154,-113.00789
3183000000,-58.372616,-127.38577
3186000000,-58.37252,-141.91333
3189000000,-58.330349,-155.24333
3192000000,-58.395882,-170.05595
3195000000,-58.282684,176.99535
3198000000,-58.484699,164.11221
3201000000,-58.258694,151.1801
3204000000,-58.06728,135.79037
3207000000,-57.932583,121.45381
3210000000,-57.974201,106.93558
3213000000,-58.05933,92.641159
3216000000,-58.056652,79.184975
3219000000,-57.920666,66.586563
3222000000,-57.67009,51.260662
3225000000,-57.705387,36.462887
3228000000,-57.864098,21.912371
3231000000,-57.816048,6.1252809
3234000000,-57.804115,-6.3520665
3237000000,-57.75415,-21.276594
3240000000,-57.747101,-36.61565
3243000000,-57.820255,-49.815445
3246000000,-57.73053,-64.89415
3249000000,-57.94072,-79.237038
3252000000,-57.886501,-93.084976
3255000000,-58.141399,-107.54732
3258000000,-58.208862,-120.81527
3261000000,-58.029152,-135.19089
3264000000,-58.386478,-148.52335
3267000000,-58.220356,-161.114
3270000000,-57.889446,-175.78534
3273000000,-57.91795,168.61258
3276000000,-57.688816,154.41283
3279000000,-57.880238,138.79312
3282000000,-58.116692,124.83041
3285000000,-58.458599,110.24556
3288000000,-58.359512,98.582031
3291000000,-58.095619,84.981964
3294000000,-58.308693,70.040138
3297000000,-58.190113,56.400902
3300000000,-58.337154,41.672928
3303000000,-58.223938,27.314777
3306000000,-58.387688,14.574186
3309000000,-58.459946,1.6026906
3312000000,-58.350647,-10.434554
3315000000,-58.113091,-24.385866
3318000000,-57.965786,-39.146576
3321000000,-57.923367,-52.9436
3324000000,-57.930607,-68.608269
3327000000,-57.912071,-83.852242
3330000000,-58.115173,-98.321533
3333000000,-58.09478,-110.97475
3336000000,-58.110222,-124.96326
3339000000,-58.14394,-137.64943
3342000000,-58.019886,-151.74281
3345000000,-57.646706,-166.60654
3348000000,-57.945316,176.82861
3351000000,-57.935745,163.48425
3354000000,-58.294342,149.01688
3357000000,-58.205742,136.50755
3360000000,-58.233826,124.22991
3363000000,-58.101967,110.45439
3366000000,-57.801914,96.536537
3369000000,-57.720242,81.066887
3372000000,-57.727516,67.628334
3375000000,-57.701073,53.888271
3378000000,-57.536484,40.688652
3381000000,-57.68235,25.555944
3384000000,-57.455299,12.050388
3387000000,-57.469238,-2.3055429
3390000000,-57.261215,-14.71795
3393000000,-57.261219,-30.442171
3396000000,-57.166267,-45.001003
3399000000,-57.131969,-60.317497
3402000000,-57.112103,-74.514885
3405000000,-57.108635,-89.611252
3408000000,-57.142471,-103.98086
3411000000,-57.180679,-120.04351
3414000000,-57.124256,-133.18002
3417000000,-57.187649,-147.25034
3420000000,-57.205097,-162.11987
3423000000,-57.264679,-176.00861
3426000000,-57.17395,168.46733
3429000000,-57.406986,153.00612
3432000000,-57.627167,139.67358
3435000000,-57.640522,126.69653
3438000000,-57.391689,112.70512
3441000000,-57.657127,98.827011
3444000000,-57.800518,84.948143
3447000000,-57.531868,72.938507
3450000000,-57.44342,58.350967
3453000000,-57.481281,43.681412
3456000000,-57.428547,29.786606
3459000000,-57.386135,15.198785
3462000000,-57.417992,1.0078993
3465000000,-57.47858,-11.237073
3468000000,-57.269802,-26.296131
3471000000,-57.207924,-41.265972
3474000000,-57.341873,-55.798622
3477000000,-57.531403,-70.563126
3480000000,-57.578472,-83.088715
3483000000,-57.67905,-96.151634
3486000000,-57.309444,-109.83306
3489000000,-57.35342,-123.85644
3492000000,-57.266182,-138.77943
3495000000,-57.199863,-153.62537
3498000000,-57.083233,-167.62315
3501000000,-57.131168,179.19186
3504000000,-56.835964,165.1089
3507000000,-56.649731,150.58176
3510000000,-56.6717,135.52843
3513000000,-56.634319,120.97653
3516000000,-56.820297,105.1543
3519000000,-56.889973,91.207085
3522000000,-56.699314,77.289017
3525000000,-56.528969,62.008289
3528000000,-56.528095,47.205631
3531000000,-56.854877,31.698095
3534000000,-56.855328,16.244253
3537000000,-56.957508,2.2185042
3540000000,-56.972061,-11.880478
3543000000,-56.983021,-26.491192
3546000000,-57.18018,-41.03817
3549000000,-57.294029,-54.55978
3552000000,-57.347736,-71.282867
3555000000,-57.707695,-85.625237
3558000000,-57.904106,-97.41375
3561000000,-57.983521,-111.10946
3564000000,-58.020226,-123.1904
3567000000,-57.951828,-137.74121
3570000000,-58.021214,-150.91779
3573000000,-58.022346,-164.99921
3576000000,-58.110794,-179.68277
3579000000,-58.383766,167.48581
3582000000,-58.366543,155.04343
3585000000,-58.290771,142.03503
3588000000,-58.360779,129.05791
3591000000,-58.034908,115.9616
3594000000,-57.857685,101.9746
3597000000,-58.071384,87.532227
3600000000,-57.979313,74.827354
3603000000,-57.917503,61.544453
3606000000,-57.768776,49.363014
3609000000,-57.38636,33.655304
3612000000,-57.637882,19.189493
3615000000,-57.27832,4.2584567
3618000000,-57.293648,-7.4083271
3621000000,-57.198738,-22.116362
3624000000,-56.78249,-37.027775
3627000000,-56.62756,-50.568069
3630000000,-56.578358,-67.495979
3633000000,-56.475391,-81.214256
3636000000,-56.629108,-97.353241
3639000000,-56.666859,-111.50566
3642000000,-56.565765,-126.04765
3645000000,-56.675758,-140.94238
3648000000,-56.379108,-154.25346
3651000000,-56.54435,-170.72995
3654000000,-56.467609,173.49594
3657000000,-56.710144,158.83461
3660000000,-56.833961,144.83455
3663000000,-57.052422,130.6207
3666000000,-57.115211,116.21574
3669000000,-57.086906,102.31921
3672000000,-57.122967,88.575455
3675000000,-57.254951,74.779999
3678000000,-57.45784,60.491024
3681000000,-57.474686,46.34203
3684000000,-57.524387,33.652912
3687000000,-57.420326,20.438574
3690000000,-57.405602,7.5182319
3693000000,-57.44389,-7.9386854
3696000000,-57.366283,-23.037186
3699000000,-57.338547,-36.945671
3702000000,-57.636562,-52.208904
3705000000,-57.586929,-65.834595
3708000000,-57.633099,-79.603394
3711000000,-57.535038,-93.736664
3714000000,-57.983418,-106.83839
3717000000,-57.942017,-119.99924
3720000000,-57.924129,-132.84119
3723000000,-57.621342,-146.49701
3726000000,-57.763073,-158.65604
3729000000,-57.883518,-172.04185
3732000000,-57.63969,173.90506
3735000000,-57.571041,160.96013
3738000000,-57.37101,145.56857
3741000000,-57.366772,132.40359
3744000000,-57.129822,119.80608
3747000000,-57.021446,104.56888
3750000000,-56.851089,89.249893
3753000000,-56.512894,74.262917
3756000000,-56.399075,60.043621
3759000000,-56.338062,43.906796
3762000000,-56.488922,29.52396
3765000000,-56.552418,14.168591
3768000000,-56.648884,0.62840408
3771000000,-56.506531,-12.637945
3774000000,-56.59129,-27.843935
3777000000,-56.465332,-43.550613
3780000000,-56.561836,-57.590694
3783000000,-56.611301,-72.263229
3786000000,-56.680889,-86.765976
3789000000,-56.644833,-100.42133
3792000000,-56.761677,-116.49404
3795000000,-56.644741,-129.7289
3798000000,-56.708824,-144.79855
3801000000,-56.867424,-158.82806
3804000000,-57.122818,-173.52083
3807000000,-57.329674,173.52475
3810000000,-57.152557,161.09048
3813000000,-57.275822,146.75421
3816000000,-56.991295,132.60838
3819000000,-57.17572,119.30006
3822000000,-57.186958,104.95062
3825000000,-57.106621,91.644989
3828000000,-57.137268,78.773399
3831000000,-57.048561,63.683079
3834000000,-57.049984,49.562614
3837000000,-57.018677,36.914822
3840000000,-56.747128,22.378239
3843000000,-56.577011,9.9480667
3846000000,-56.360165,-5.0219049
3849000000,-56.42831,-20.730537
3852000000,-56.243042,-34.363369
3855000000,-56.122772,-49.234211
3858000000,-56.20998,-63.746292
3861000000,-56.133125,-78.442757
3864000000,-56.05357,-93.736427
3867000000,-56.136402,-108.70786
3870000000,-56.374588,-122.94254
3873000000,-56.176434,-136.46976
3876000000,-55.980469,-151.36551
3879000000,-56.051918,-165.74147
3882000000,-56.12706,179.6371
3885000000,-56.096439,164.84758
3888000000,-56.138931,150.63895
3891000000,-56.084221,135.20695
3894000000,-56.207333,121.33591
3897000000,-56.009098,106.3434
3900000000,-56.149971,90.679565
3903000000,-56.128777,75.458115
3906000000,-56.389008,61.644855
3909000000,-56.598736,46.1805
3912000000,-56.711445,32.922611
3915000000,-56.90229,18.556852
3918000000,-57.18351,6.367785
3921000000,-57.002369,-7.5750318
3924000000,-57.22057,-22.486235
3927000000,-56.943726,-37.399914
3930000000,-57.188866,-50.394299
3933000000,-57.358486,-64.429405
3936000000,-57.34338,-76.43782
3939000000,-57.082451,-89.479538
3942000000,-57.108471,-103.99162
3945000000,-57.341488,-119.45309
3948000000,-57.133102,-132.25407
3951000000,-57.278141,-144.49715
3954000000,-57.240276,-158.43465
3957000000,-57.063213,-172.43942
3960000000,-57.067738,171.94557
3963000000,-56.888939,159.69398
3966000000,-56.763599,145.82332
3969000000,-56.67482,130.90503
3972000000,-56.851582,115.6454
3975000000,-56.961311,102.00573
3978000000,-56.681164,88.096611
3981000000,-56.774876,74.608902
3984000000,-56.680439,58.701126
3987000000,-56.720795,45.55529
3990000000,-56.610001,31.47191
3993000000,-56.543884,15.529707
3996000000,-56.231846,-0.92132121
3999000000,-56.480042,-15.181282
4002000000,-56.303078,-29.352814
4005000000,-56.73481,-43.923626
4008000000,-56.591221,-57.769516
4011000000,-56.577332,-71.433174
4014000000,-56.422031,-87.23233
4017000000,-56.613136,-101.67001
4020000000,-56.907032,-116.04951
4023000000,-56.933613,-130.32538
4026000000,-56.923927,-143.45712
4029000000,-57.010559,-158.24062
4032000000,-56.992893,-173.01244
4035000000,-57.282677,173.23785
4038000000,-57.217587,159.08554
4041000000,-57.466644,145.017
4044000000,-57.647114,130.54489
4047000000,-57.602287,118.10729
4050000000,-57.457336,104.44412
4053000000,-57.285252,91.670357
4056000000,-57.259007,76.954269
4059000000,-57.399426,61.300373
4062000000,-57.562511,48.836098
4065000000,-57.686035,36.254215
4068000000,-57.334919,22.992121
4071000000,-57.106812,8.1543074
4074000000,-56.927887,-6.6579757
4077000000,-57.023376,-21.444975
4080000000,-57.015442,-35.616619
4083000000,-57.454353,-50.277798
4086000000,-57.350338,-64.278923
4089000000,-57.166569,-78.810158
4092000000,-57.258133,-90.731041
4095000000,-57.121037,-106.84608
4098000000,-56.89064,-122.27834
4101000000,-57.330971,-136.86472
4104000000,-57.594898,-148.52817
4107000000,-57.344536,-163.01111
4110000000,-57.507095,-175.86226
4113000000,-57.297005,170.48566
4116000000,-57.241203,157.19984
4119000000,-56.950283,143.91301
4122000000,-56.685162,128.11339
4125000000,-56.808701,113.72038
4128000000,-56.74754,99.232811
4131000000,-57.013542,83.045876
4134000000,-56.967407,69.887573
4137000000,-56.908432,54.398937
4140000000,-56.814632,40.726448
4143000000,-56.876652,25.767702
4146000000,-56.895851,11.443456
4149000000,-56.968121,-3.2800176
4152000000,-56.850327,-18.01086
4155000000,-56.713978,-31.872152
4158000000,-56.932343,-45.044945
4161000000,-56.762604,-59.052376
4164000000,-56.854847,-75.002243
4167000000,-56.715229,-88.329269
4170000000,-57.01144,-103.84042
4173000000,-57.094711,-118.28596
4176000000,-57.155514,-131.73378
4179000000,-57.056747,-145.526
4182000000,-56.973183,-160.925
4185000000,-56.982605,-175.28505
4188000000,-57.274857,171.54079
4191000000,-57.196243,157.58792
4194000000,-57.355015,142.66356
4197000000,-57.172813,128.93575
4200000000,-57.213932,116.98441
4203000000,-57.460121,101.68344
4206000000,-57.470055,86.031746
4209000000,-57.203197,72.435806
4212000000,-57.250645,58.404205
4215000000,-57.443756,44.329197
4218000000,-57.57235,29.884144
4221000000,-57.482208,16.996078
4224000000,-57.464096,1.6497118
4227000000,-57.359383,-12.143242
4230000000,-57.276711,-24.876158
4233000000,-57.24818,-37.95224
4236000000,-57.156178,-54.578335
4239000000,-57.158981,-69.41095
4242000000,-57.36998,-84.04538
4245000000,-57.421879,-98.493156
4248000000,-57.267456,-112.79788
4251000000,-57.303162,-127.46304
4254000000,-57.561092,-141.19211
4257000000,-57.49659,-157.65462
4260000000,-57.781528,-169.61583
4263000000,-57.836403,175.42873
4266000000,-57.962887,160.94876
4269000000,-57.855656,146.85991
4272000000,-57.972637,134.73967
4275000000,-57.944267,121.067
4278000000,-57.960159,106.15719
4281000000,-58.029221,92.183723
4284000000,-57.897202,77.192299
4287000000,-58.076328,63.597954
4290000000,-58.046242,51.279438
4293000000,-57.999901,36.002361
4296000000,-58.16032,22.054623
4299000000,-58.188023,7.5501986
4302000000,-58.200836,-4.225317
4305000000,-58.033108,-20.915428
4308000000,-58.118591,-35.100899
4311000000,-58.194176,-49.386532
4314000000,-58.40237,-62.813274
4317000000,-58.508411,-74.511337
4320000000,-58.68338,-88.691895
4323000000,-58.592995,-100.98132
4326000000,-58.013248,-115.03742
4329000000,-58.088707,-128.63203
4332000000,-57.759777,-144.67656
4335000000,-58.140701,-156.48196
4338000000,-58.205467,-172.47417
4341000000,-58.156212,174.28194
4344000000,-57.813942,162.46388
4347000000,-57.851753,148.12297
4350000000,-57.656311,133.6187
4353000000,-57.798317,117.49069
4356000000,-57.635128,104.13972
4359000000,-57.583546,88.996727
4362000000,-57.492599,73.660553
4365000000,-57.508575,59.85281
4368000000,-57.601559,45.540531
4371000000,-57.484276,31.594824
4374000000,-57.487263,17.303928
4377000000,-57.40406,2.1386247
4380000000,-57.432304,-13.448565
4383000000,-57.431499,-27.590298
4386000000,-57.580013,-42.243073
4389000000,-57.630066,-56.198029
4392000000,-57.54652,-69.744934
4395000000,-57.799782,-84.206009
4398000000,-57.779205,-97.142067
4401000000,-57.694847,-111.46483
4404000000,-57.908081,-126.31699
4407000000,-57.84119,-139.85385
4410000000,-57.857758,-155.00748
4413000000,-57.924282,-168.7135
4416000000,-57.419815,178.23691
4419000000,-57.478813,164.23578
4422000000,-57.544792,148.8624
4425000000,-57.495586,132.96893
4428000000,-57.789223,117.82172
4431000000,-57.908207,102.96516
4434000000,-57.966305,94.215546
4437000000,-57.966534,79.793243
4440000000,-57.661495,66.086792
4443000000,-57.76281,52.941235
4446000000,-57.544224,36.331284
4449000000,-57.411259,20.507845
4452000000,-57.617496,5.5259352
4455000000,-57.575684,-7.8075681
4458000000,-57.691776,-23.083321
4461000000,-57.727657,-36.901398
4464000000,-57.665199,-50.454811
4467000000,-57.761127,-64.781311
4470000000,-57.6021,-79.641937
4473000000,-57.844997,-94.02137
4476000000,-57.861919,-109.03159
4479000000,-57.737747,-122.53954
4482000000,-57.901501,-136.3895
4485000000,-57.904617,-149.41246
4488000000,-57.895359,-164.38907
4491000000,-57.897636,-178.77237
4494000000,-57.820675,167.5761
4497000000,-57.750851,152.86829
4500000000,-57.711403,138.65425
4503000000,-58.098606,124.66158
4506000000,-57.90126,107.9203
4509000000,-58.102882,95.346695
4512000000,-57.939651,79.940804
4515000000,-57.891651,64.006622
4518000000,-58.06702,49.271774
4521000000,-58.12336,35.30394
4524000000,-58.371719,22.489487
4527000000,-58.762089,7.8921213
4530000000,-58.622986,-4.9945579
4533000000,-58.892056,-18.272926
4536000000,-58.598778,-30.672543
4539000000,-58.68187,-45.37059
4542000000,-58.756313,-61.575085
4545000000,-58.401825,-75.270485
4548000000,-58.655109,-89.50563
4551000000,-58.593544,-103.69806
4554000000,-58.779095,-115.5753
4557000000,-58.959435,-129.57454
4560000000,-58.930412,-142.25896
4563000000,-58.83493,-156.84473
4566000000,-58.665524,-172.6004
4569000000,-58.596367,174.45258
4572000000,-58.344482,160.20674
4575000000,-58.974152,145.62979
4578000000,-58.957962,132.68781
4581000000,-58.882092,120.50578
4584000000,-58.613697,106.37925
4587000000,-58.669254,89.549583
4590000000,-58.726486,73.492477
4593000000,-58.700016,61.558002
4596000000,-58.661835,47.263931
4599000000,-58.661282,33.514942
4602000000,-58.403809,19.469109
4605000000,-58.755501,2.8068187
4608000000,-58.82058,-9.2640114
4611000000,-58.5299,-25.199465
4614000000,-58.545639,-38.283947
4617000000,-58.662518,-53.203629
4620000000,-58.789242,-68.630882
4623000000,-59.053928,-81.466316
4626000000,-58.873779,-95.233055
4629000000,-59.165211,-107.76172
4632000000,-59.085377,-123.77831
4635000000,-59.019012,-136.73944
4638000000,-59.148235,-151.633
4641000000,-59.338364,-165.66953
4644000000,-59.74855,179.49806
4647000000,-59.424576,167.37904
4650000000,-59.335464,155.19778
4653000000,-58.99057,142.33083
4656000000,-58.815933,127.02043
4659000000,-58.93618,113.60779
4662000000,-59.123955,97.25367
4665000000,-58.645809,83.23214
4668000000,-58.645092,67.764473
4671000000,-59.144417,53.971306
4674000000,-59.324745,40.882343
4677000000,-59.653305,28.283363
4680000000,-58.913189,14.454567
4683000000,-59.29166,2.2728534
4686000000,-58.981239,-13.247129
4689000000,-58.750996,-28.183044
4692000000,-58.956726,-42.022373
4695000000,-58.635197,-53.973866
4698000000,-58.657398,-70.406265
4701000000,-58.562477,-82.556702
4704000000,-58.425087,-98.038719
4707000000,-57.982059,-112.70935
4710000000,-58.177391,-130.23793
4713000000,-58.290878,-144.12575
4716000000,-58.185959,-156.29213
4719000000,-58.229969,-172.74335
4722000000,-58.294724,171.86101
4725000000,-58.46896,157.93205
4728000000,-58.388111,144.21927
4731000000,-58.42738,128.56407
4734000000,-58.554863,114.19635
4737000000,-58.514912,100.61532
4740000000,-58.707321,86.110931
4743000000,-58.955379,73.000076
4746000000,-59.015026,56.791313
4749000000,-59.092773,43.915413
4752000000,-59.291031,29.729252
4755000000,-59.066895,15.095733
4758000000,-59.093868,2.7805021
4761000000,-59.039215,-12.383181
4764000000,-59.198956,-26.255493
4767000000,-59.344948,-41.677456
4770000000,-59.679104,-56.056961
4773000000,-59.50729,-66.378403
4776000000,-59.311028,-79.589493
4779000000,-59.369095,-94.930786
4782000000,-59.066082,-111.69218
4785000000,-58.906841,-123.05514
4788000000,-58.953346,-137.58675
4791000000,-59.201103,-154.47321
4794000000,-59.076092,-168.62698
4797000000,-58.953587,177.68871
4800000000,-59.101944,163.73058
4803000000,-59.0592,151.1501
4806000000,-59.109699,134.34625
4809000000,-59.378803,121.35215
4812000000,-59.144081,106.27119
4815000000,-59.080238,92.199409
4818000000,-59.220493,78.521545
4821000000,-59.243629,62.504337
4824000000,-59.46487,47.87484
4827000000,-59.272041,34.15963
4830000000,-59.542068,20.769279
4833000000,-59.496674,5.7362518
4836000000,-59.705421,-10.657222
4839000000,-59.774197,-23.564594
4842000000,-59.391956,-36.504459
4845000000,-59.639183,-51.318256
4848000000,-59.658062,-64.877144
4851000000,-59.666115,-79.743927
4854000000,-60.064442,-93.844719
4857000000,-59.990421,-108.9407
4860000000,-60.315586,-122.63278
4863000000,-60.572495,-138.80788
4866000000,-60.630409,-150.97726
4869000000,-60.940697,-161.3037
4872000000,-60.877529,-179.20256
4875000000,-61.19479,171.14354
4878000000,-60.882275,155.53813
4881000000,-61.181274,142.01292
4884000000,-61.202732,131.89618
4887000000,-61.014526,119.34011
4890000000,-61.345974,104.6496
4893000000,-61.172813,89.889282
4896000000,-61.177742,76.16555
4899000000,-61.32206,65.572792
4902000000,-60.759708,52.050743
4905000000,-60.782547,37.230255
4908000000,-60.742207,20.289793
4911000000,-60.567989,11.368458
4914000000,-60.51144,-5.4744925
4917000000,-60.472591,-18.316702
4920000000,-60.483822,-32.815536
4923000000,-60.427021,-43.834831
4926000000,-60.259686,-57.941505
4929000000,-59.905407,-73.426033
4932000000,-59.60384,-87.357933
4935000000,-59.498501,-104.79025
4938000000,-59.307583,-116.77065
4941000000,-59.299221,-133.32837
4944000000,-59.195515,-147.62498
4947000000,-59.168026,-164.44203
4950000000,-59.206608,-178.58429
4953000000,-59.625069,165.21535
4956000000,-59.437138,150.85591
4959000000,-59.403244,137.89999
4962000000,-59.652756,124.71617
4965000000,-59.7645,107.71348
4968000000,-59.912807,95.960518
4971000000,-59.901146,81.54084
4974000000,-59.845715,67.211845
4977000000,-60.375313,51.234619
4980000000,-60.099812,37.648785
4983000000,-59.831295,23.443594
4986000000,-60.150566,7.308702
4989000000,-60.047306,-7.4947734
4992000000,-60.371342,-21.67333
4995000000,-60.501495,-35.921757
4998000000,-60.293888,-51.011715
5001000000,-60.596428,-64.144379
5004000000,-60.444805,-81.033012
5007000000,-60.941872,-91.82077
5010000000,-61.295082,-106.75233
5013000000,-61.198547,-118.48015
5016000000,-61.104446,-132.07603
5019000000,-61.672737,-145.78674
5022000000,-61.701038,-156.71931
5025000000,-61.130653,-170.59074
5028000000,-60.648293,175.41554
5031000000,-60.894066,159.37816
5034000000,-61.138512,146.43173
5037000000,-61.419167,134.49345
5040000000,-61.404125,119.18095
5043000000,-60.982803,106.43065
5046000000,-60.729263,93.346207
5049000000,-60.651821,80.330574
5052000000,-60.540211,64.005432
5055000000,-60.261223,46.898479
5058000000,-60.335602,32.51099
5061000000,-60.423016,19.741308
5064000000,-60.731796,2.0197749
5067000000,-60.520958,-7.736423
5070000000,-60.650204,-23.279432
5073000000,-61.078861,-37.132477
5076000000,-60.746727,-51.19912
5079000000,-60.432758,-65.110779
5082000000,-60.613838,-77.41436
5085000000,-61.081512,-93.772949
5088000000,-60.690979,-107.90832
5091000000,-61.003963,-125.10213
5094000000,-60.535271,-135.56549
5097000000,-60.536499,-153.32648
5100000000,-60.94957,-170.87691
5103000000,-60.904049,176.50235
5106000000,-61.717098,165.24864
5109000000,-61.172977,151.28638
5112000000,-61.373917,135.11609
5115000000,-62.090408,122.9507
5118000000,-61.78587,114.01244
5121000000,-61.541206,101.34074
5124000000,-61.274357,80.894661
5127000000,-61.670246,69.386543
5130000000,-61.493362,56.168152
5133000000,-61.884365,45.561771
5136000000,-61.578846,32.866344
5139000000,-61.962166,18.211287
5142000000,-61.122559,3.916491
5145000000,-60.902546,-9.8160286
5148000000,-61.051308,-26.544367
5151000000,-60.810093,-40.208439
5154000000,-60.671703,-54.555187
5157000000,-61.413082,-71.424141
5160000000,-61.229103,-83.425056
5163000000,-60.919914,-95.09259
5166000000,-61.015369,-110.67806
5169000000,-60.844185,-125.9193
5172000000,-60.865875,-141.38408
5175000000,-60.700905,-152.76228
5178000000,-60.433258,-170.09984
5181000000,-61.184471,177.7856
5184000000,-60.90818,162.75771
5187000000,-60.611298,145.99867
5190000000,-60.695435,132.24951
5193000000,-60.858715,116.754
5196000000,-60.659645,104.28408
5199000000,-60.299564,87.502968
5202000000,-60.67791,72.723389
5205000000,-60.672817,58.774174
5208000000,-61.093945,43.025795
5211000000,-61.11657,28.627684
5214000000,-61.120518,14.300097
5217000000,-61.326229,-2.4536214
5220000000,-62.264183,-18.367846
5223000000,-61.830746,-29.440159
5226000000,-61.756859,-42.296051
5229000000,-62.444084,-55.913536
5232000000,-61.878899,-66.405205
5235000000,-62.544735,-83.389091
5238000000,-62.221931,-98.392738
5241000000,-62.91864,-113.30314
5244000000,-63.198643,-123.99964
5247000000,-62.76685,-138.20363
5250000000,-63.135956,-153.87138
5253000000,-62.934349,-163.80223
5256000000,-63.327774,-175.11067
5259000000,-62.830379,174.48218
5262000000,-62.139763,157.65842
5265000000,-62.003452,143.99574
5268000000,-62.143883,126.08843
5271000000,-62.67181,112.37782
5274000000,-63.045834,99.041283
5277000000,-63.087311,87.264458
5280000000,-63.001858,76.256676
5283000000,-62.662422,62.784977
5286000000,-62.53561,45.053482
5289000000,-62.485577,33.629417
5292000000,-62.790936,16.988415
5295000000,-62.4897,6.8749242
5298000000,-62.379189,-7.3011684
5301000000,-62.303421,-21.680639
5304000000,-61.90395,-38.676441
5307000000,-62.203236,-53.060978
5310000000,-62.426689,-67.560356
5313000000,-61.46529,-82.893578
5316000000,-61.72039,-97.802155
5319000000,-61.9086,-112.33658
5322000000,-62.070641,-124.13683
5325000000,-61.973972,-140.14522
5328000000,-61.813549,-156.69456
5331000000,-62.174149,-169.10904
5334000000,-62.240093,-178.7108
5337000000,-63.591305,158.23564
5340000000,-62.510723,149.73898
5343000000,-62.476448,130.55441
5346000000,-62.597553,120.82652
5349000000,-63.073143,108.65143
5352000000,-63.061268,92.355225
5355000000,-63.024616,80.457443
5358000000,-63.170109,66.718056
5361000000,-63.19772,47.41713
5364000000,-63.165878,37.115864
5367000000,-63.339504,25.451811
5370000000,-63.449127,13.162068
5373000000,-63.705833,1.2053732
5376000000,-62.764797,-11.56762
5379000000,-63.477848,-28.831486
5382000000,-63.786293,-39.870007
5385000000,-63.655327,-56.030964
5388000000,-63.663277,-70.940582
5391000000,-63.602219,-81.038895
5394000000,-63.647755,-98.907867
5397000000,-63.561058,-110.34097
5400000000,-62.33836,-125.43663
5403000000,-62.109184,-138.21811
5406000000,-62.024902,-153.75674
5409000000,-62.342991,-169.96504
5412000000,-62.692341,174.85092
5415000000,-62.634903,163.86372
5418000000,-62.679302,149.58731
5421000000,-62.759098,131.80214
5424000000,-62.322334,116.71225
5427000000,-61.900867,103.31097
5430000000,-62.230267,86.210526
5433000000,-62.629303,73.689766
5436000000,-62.587883,59.081131
5439000000,-62.582943,45.115894
5442000000,-62.235004,31.07785
5445000000,-62.919971,13.863791
5448000000,-62.755974,-0.010439444
5451000000,-62.848095,-11.158121
5454000000,-62.598442,-26.26885
5457000000,-62.810589,-40.77544
5460000000,-63.115437,-57.874695
5463000000,-63.183479,-78.128525
5466000000,-64.006775,-89.448494
5469000000,-65.272179,-100.53343
5472000000,-64.661797,-113.52774
5475000000,-64.649033,-122.50041
5478000000,-65.777847,-135.87186
5481000000,-65.173401,-150.42049
5484000000,-65.043427,-164.05258
5487000000,-65.62249,-174.51274
5490000000,-64.750717,167.02724
5493000000,-66.880524,160.14293
5496000000,-64.734749,150.90886
5499000000,-65.04718,135.1747
5502000000,-64.318573,121.70976
5505000000,-65.219788,107.21526
5508000000,-64.056969,92.736519
5511000000,-64.170776,76.51712
5514000000,-64.034882,66.534096
5517000000,-63.963928,53.309738
5520000000,-63.617905,38.253098
5523000000,-63.942043,22.475452
5526000000,-64.070442,8.8872681
5529000000,-63.787827,-9.7775984
5532000000,-63.695404,-18.629581
5535000000,-63.564587,-34.735435
5538000000,-63.348328,-51.738708
5541000000,-63.186108,-63.152714
5544000000,-63.444092,-78.480522
5547000000,-63.135685,-95.596008
5550000000,-63.049156,-109.80643
5553000000,-63.210205,-127.01019
5556000000,-63.917465,-141.381
5559000000,-63.456039,-154.50414
5562000000,-63.513485,-168.27975
5565000000,-63.57996,174.79153
5568000000,-63.234104,161.20282
5571000000,-64.269981,145.86882
5574000000,-64.438171,135.39546
5577000000,-64.838478,116.14478
5580000000,-64.674461,98.569839
5583000000,-63.877987,90.775002
5586000000,-65.449631,72.599922
5589000000,-67.030533,59.409279
5592000000,-66.074051,51.639168
5595000000,-65.857498,35.035149
5598000000,-66.542412,26.520746
5601000000,-65.875412,10.688477
5604000000,-66.181129,-1.4928867
5607000000,-65.778625,-15.459126
5610000000,-65.941986,-20.210117
5613000000,-66.280128,-34.802521
5616000000,-65.653366,-48.352524
5619000000,-65.44429,-68.257172
5622000000,-64.753296,-74.6661
5625000000,-65.094017,-89.691521
5628000000,-65.017273,-98.348244
5631000000,-65.108116,-120.40464
5634000000,-65.199669,-130.84354
5637000000,-64.35144,-147.61586
5640000000,-64.858688,-159.72964
5643000000,-65.241112,-173.83978
5646000000,-64.384308,174.54268
5649000000,-63.894524,155.47124
5652000000,-64.180344,140.6801
5655000000,-64.647018,125.6384
5658000000,-63.786396,110.01279
5661000000,-64.066788,95.19529
5664000000,-63.436279,86.502464
5667000000,-63.569759,69.897713
5670000000,-63.426392,53.536243
5673000000,-63.41169,33.869423
5676000000,-64.009102,21.23834
5679000000,-65.03215,4.9478264
5682000000,-63.979107,-11.669976
5685000000,-64.249382,-26.886448
5688000000,-64.734718,-40.404217
5691000000,-65.62896,-51.305058
5694000000,-66.133728,-68.014801
5697000000,-67.130341,-78.688423
5700000000,-65.927284,-92.116272
5703000000,-65.818863,-102.8507
5706000000,-66.370125,-121.85484
5709000000,-66.068642,-130.09581
5712000000,-66.664337,-144.95714
5715000000,-65.87989,-156.14931
5718000000,-67.906784,-167.04214
5721000000,-66.904022,-176.15958
5724000000,-66.254105,169.66566
5727000000,-66.891502,150.20184
5730000000,-67.027031,135.78545
5733000000,-67.067841,123.30762
5736000000,-66.963387,114.58344
5739000000,-67.154922,103.3132
5742000000,-66.55336,87.328514
5745000000,-66.603172,74.564613
5748000000,-65.583389,58.073212
5751000000,-65.719543,48.658855
5754000000,-65.350372,31.9755
5757000000,-66.52697,19.757486
5760000000,-66.35743,3.0895035
5763000000,-66.36216,-16.206385
5766000000,-65.182991,-28.139889
5769000000,-65.147217,-42.282955
5772000000,-65.239258,-56.75687
5775000000,-65.161064,-64.076935
5778000000,-65.505257,-81.669533
5781000000,-65.684326,-95.939491
5784000000,-66.043381,-109.07909
5787000000,-64.532661,-131.80891
5790000000,-65.804108,-144.3851
5793000000,-65.171707,-159.94899
5796000000,-66.310341,-172.42097
5799000000,-65.708595,171.09642
5802000000,-65.614983,165.84428
5805000000,-65.620193,144.34128
5808000000,-66.257973,131.36264
5811000000,-66.2089,113.62672
5814000000,-66.508987,98.692894
5817000000,-66.305847,93.15995
5820000000,-67.51165,75.212234
5823000000,-66.782898,66.15477
5826000000,-68.773529,45.086708
5829000000,-67.609688,32.711666
5832000000,-66.966713,23.27133
5835000000,-67.875641,14.646094
5838000000,-67.972038,2.1290929
5841000000,-67.939308,-17.441669
5844000000,-67.264961,-23.684189
5847000000,-66.786377,-39.226006
5850000000,-67.499313,-51.157623
5853000000,-66.714539,-65.599434
5856000000,-68.021561,-82.228859
5859000000,-68.232605,-91.438293
5862000000,-67.218056,-106.64204
5865000000,-67.39743,-115.36968
5868000000,-67.333382,-125.76243
5871000000,-67.474716,-136.30956
5874000000,-65.956322,-154.50052
5877000000,-65.547539,-167.45688
5880000000,-66.208687,176.39763
5883000000,-65.858688,161.63457
5886000000,-66.412453,149.62999
5889000000,-65.448059,125.39388
5892000000,-65.877449,118.06467
5895000000,-65.577812,103.60471
5898000000,-65.280357,86.127052
5901000000,-65.12735,65.24054
5904000000,-65.504288,52.443573
5907000000,-65.349968,37.865028
5910000000,-65.61261,20.145544
5913000000,-65.77227,10.397862
5916000000,-65.682106,-1.5874618
5919000000,-65.81707,-15.2461
5922000000,-66.528343,-30.260391
5925000000,-65.950455,-43.11417
5928000000,-66.322235,-62.488628
5931000000,-66.440674,-71.052574
5934000000,-66.114319,-85.161255
5937000000,-65.520988,-92.424706
5940000000,-65.927315,-114.6694
5943000000,-65.64402,-132.79359
5946000000,-67.195518,-142.54076
5949000000,-67.482941,-156.80966
5952000000,-67.440262,-168.89845
5955000000,-66.165413,-179.58708
5958000000,-65.877708,164.11848
5961000000,-66.964844,148.75468
5964000000,-67.097961,137.67488
5967000000,-67.378105,121.16058
5970000000,-66.306419,115.07283
5973000000,-67.124252,99.116104
5976000000,-65.7714,78.099991
5979000000,-67.086708,62.857563
5982000000,-67.330391,52.886765
5985000000,-66.620209,37.969448
5988000000,-67.562843,30.283979
5991000000,-65.883812,22.191168
5994000000,-67.344597,0.60531276
5997000000,-67.14463,-2.986028
6000000000,-67.646309,-18.370735
END

